#1	20-Feb-15	31557185.89	â€¦should be the last timestamp.Double up the first and last records in post. Subtract 2 from the num. of rows in the dat file and update the matrix RC with that.																			
float	DNI_THTFin_vdot(705,23)		#vectors: (SecOfYear), DNI (W/m2), THTF_in (K), vdot (m3/s), Egen(W), THTF_out (K), Tcavity (K), THTFout(K), Tcav(K), T_s3m6in, T_s3m6out, T_s3m5in, T_s3m5out, T_s3m4in, T_s3m4out, T_s3m3in, T_s3m3out, T_s3m2in, T_s3m2out, T_s3m1in, T_s3m1out, T_s2m6in, T_s2m1out, T_s2m2or3, T_s2m3or2																			
0		296.24	0.00	16.61	297.63	294.63	296.24	296.27	297.29	296.84	297.26	296.86	297.28	297.31	297.60	297.51	297.56	297.50	295.90	297.63	297.86	297.45
4447953.656	644.3	330.87	0.000001643	41.44	343.57	297.09	330.9	332.2	332.3	333.7	333.6	334.8	334.6	336.1	335.5	337.0	336.9	337.8	336.2	343.6	345.8	347.1
4447963.657	643.8	330.86	0.000001643	41.34	343.60	297.09	330.9	332.1	332.3	333.6	333.5	334.8	334.6	336.1	335.5	337.1	336.8	337.8	336.3	343.6	345.8	347.1
4447973.707	644.5	330.85	0.000001643	41.52	343.60	297.09	330.9	332.2	332.3	333.7	333.5	334.7	334.6	336.2	335.5	337.0	336.8	337.8	336.3	343.6	345.7	347.0
4447983.708	645.8	330.85	0.000001644	41.43	343.63	297.08	330.8	332.3	332.3	333.6	333.5	334.8	334.6	336.2	335.5	337.1	336.8	337.8	336.3	343.6	345.7	347.0
4447993.708	646.5	330.85	0.000001644	41.60	343.67	297.08	330.8	332.1	332.3	333.7	333.5	334.7	334.6	336.2	335.5	337.1	336.8	337.8	336.3	343.7	345.8	347.0
4448003.708	644.7	330.86	0.000001644	41.54	343.70	297.07	330.9	332.2	332.3	333.7	333.5	334.8	334.6	336.2	335.5	337.1	336.9	337.8	336.3	343.7	345.7	347.1
4448013.709	645.4	330.85	0.000001644	41.56	343.67	297.06	330.9	332.4	332.3	333.7	333.6	334.7	334.6	336.2	335.5	337.1	336.8	337.9	336.3	343.7	345.7	347.0
4448023.709	645.2	330.85	0.000001644	41.46	343.68	297.05	330.9	332.1	332.3	333.7	333.5	334.8	334.6	336.2	335.5	337.1	336.9	337.8	336.4	343.7	345.8	347.1
4448033.710	644.7	330.86	0.000001644	41.46	343.70	297.04	330.9	332.1	332.3	333.7	333.5	334.7	334.6	336.1	335.5	337.1	336.9	337.9	336.4	343.7	345.7	347.0
4448043.710	645.6	330.84	0.000001644	41.70	343.72	297.03	330.8	332.1	332.2	333.6	333.5	334.7	334.6	336.2	335.5	337.1	336.9	337.8	336.4	343.7	345.7	347.0
4448053.711	645.6	330.83	0.000001644	41.64	343.75	297.01	330.8	332.1	332.3	333.6	333.5	334.7	334.6	336.2	335.5	337.1	336.8	337.8	336.4	343.8	345.7	346.9
4448063.711	645.5	330.81	0.000001644	41.67	343.74	297.00	330.8	332.0	332.2	333.7	333.5	334.8	334.6	336.1	335.5	337.1	336.9	337.7	336.3	343.7	345.6	346.8
4448073.661	646.5	330.80	0.000001644	41.69	343.74	296.98	330.8	332.1	332.2	333.7	333.5	334.7	334.6	336.1	335.5	337.0	336.8	337.8	336.3	343.7	345.7	346.9
4448083.712	646.8	330.80	0.000001644	41.69	343.76	296.97	330.8	332.1	332.2	333.7	333.5	334.7	334.5	336.1	335.5	337.0	336.8	337.8	336.4	343.8	345.7	346.9
4448093.662	646.5	330.80	0.000001644	41.59	343.78	296.95	330.8	332.2	332.2	333.7	333.5	334.8	334.5	336.2	335.5	337.0	336.8	337.9	336.3	343.8	345.7	347.0
4448103.713	646.3	330.78	0.000001644	41.64	343.79	296.94	330.8	332.1	332.2	333.7	333.5	334.7	334.5	336.1	335.5	337.0	336.8	337.8	336.3	343.8	345.7	347.0
4448113.663	646.0	330.77	0.000001644	41.66	343.79	296.92	330.8	332.3	332.2	333.7	333.5	334.7	334.6	336.1	335.5	337.0	336.8	337.8	336.3	343.8	345.6	346.9
4448123.664	645.2	330.73	0.000001644	41.62	343.80	296.91	330.7	332.2	332.2	333.7	333.5	334.7	334.5	336.1	335.5	336.9	336.8	337.8	336.3	343.8	345.7	346.9
4448133.664	646.0	330.73	0.000001644	41.67	343.83	296.89	330.7	332.1	332.2	333.7	333.5	334.7	334.5	336.0	335.4	337.1	336.8	337.8	336.3	343.8	345.7	347.0
4448143.714	645.5	330.71	0.000001643	41.69	343.78	296.88	330.7	332.2	332.2	333.6	333.5	334.7	334.5	336.1	335.5	337.0	336.8	337.9	336.3	343.8	345.7	347.0
4448153.665	646.2	330.71	0.000001643	41.51	343.78	296.87	330.7	332.2	332.2	333.6	333.5	334.7	334.5	336.1	335.5	337.0	336.8	337.8	336.3	343.8	345.7	347.0
4448163.715	646.1	330.72	0.000001643	41.67	343.82	296.86	330.7	332.0	332.1	333.6	333.4	334.6	334.5	336.0	335.4	336.9	336.8	337.8	336.3	343.8	345.7	347.0
4448173.666	644.5	330.73	0.000001643	41.59	343.78	296.84	330.7	332.1	332.1	333.6	333.5	334.6	334.5	336.1	335.4	337.0	336.8	337.8	336.3	343.8	345.7	347.0
4448183.716	647.3	330.75	0.000001643	41.73	343.79	296.84	330.7	332.1	332.2	333.7	333.5	334.6	334.5	336.1	335.4	336.9	336.8	337.8	336.3	343.8	345.7	347.0
4448193.717	647.2	330.79	0.000001643	41.70	343.79	296.83	330.8	332.1	332.2	333.6	333.5	334.6	334.5	336.1	335.4	337.0	336.8	337.8	336.3	343.8	345.6	347.0
4448203.717	646.8	330.82	0.000001643	41.76	343.82	296.82	330.8	332.1	332.2	333.7	333.5	334.7	334.5	336.1	335.4	337.0	336.8	337.9	336.3	343.8	345.7	347.0
4448213.717	646.2	330.86	0.000001642	41.67	343.78	296.81	330.9	332.4	332.2	333.7	333.6	334.7	334.6	336.1	335.5	337.0	336.8	337.9	336.3	343.8	345.7	347.0
4448223.718	647.2	330.88	0.000001642	41.79	343.88	296.81	330.9	332.1	332.3	333.7	333.6	334.8	334.6	336.2	335.5	337.0	336.9	337.8	336.3	343.9	345.7	347.0
4448233.668	646.9	330.91	0.000001642	41.79	343.90	296.80	330.9	332.5	332.3	333.8	333.6	334.7	334.6	336.1	335.5	337.1	336.8	337.8	336.3	343.9	345.7	347.0
4448243.719	646.2	330.96	0.000001642	41.83	343.76	296.79	331.0	332.3	332.3	333.8	333.7	334.9	334.6	336.2	335.5	337.1	336.9	337.9	336.3	343.8	345.7	347.1
4448253.719	645.2	330.98	0.000001642	41.79	343.89	296.79	331.0	332.2	332.4	333.9	333.7	334.9	334.6	336.2	335.6	337.1	336.9	337.9	336.4	343.9	345.8	347.1
4448263.670	645.0	331.02	0.000001642	41.80	343.84	296.79	331.0	332.4	332.4	333.9	333.7	334.9	334.6	336.3	335.6	337.1	336.9	338.0	336.4	343.8	345.8	347.1
4448273.720	644.6	331.06	0.000001642	41.70	343.83	296.78	331.1	332.2	332.4	333.9	333.8	334.9	334.7	336.3	335.6	337.1	337.0	338.0	336.4	343.8	345.8	347.1
4448283.720	643.6	331.11	0.000001642	41.76	343.84	296.78	331.1	332.3	332.5	334.0	333.8	335.0	334.8	336.4	335.6	337.1	337.0	338.1	336.4	343.8	345.8	347.2
4448293.721	641.6	331.14	0.000001641	41.72	343.85	296.78	331.1	332.3	332.5	334.0	333.8	335.0	334.8	336.4	335.7	337.2	337.0	338.1	336.4	343.8	345.8	347.2
4448303.721	640.4	331.17	0.000001641	41.67	343.93	296.77	331.2	332.7	332.5	334.1	333.8	335.0	334.8	336.4	335.7	337.2	337.0	338.0	336.5	343.9	345.9	347.3
4448313.722	641.3	331.21	0.000001641	41.80	343.94	296.77	331.2	332.5	332.6	334.1	333.9	335.0	334.9	336.4	335.7	337.2	337.1	338.1	336.5	343.9	345.9	347.3
4448323.672	640.3	331.25	0.000001641	41.73	343.95	296.77	331.3	332.7	332.6	334.1	334.0	335.0	334.9	336.4	335.8	337.3	337.1	338.2	336.5	344.0	345.9	347.3
4448333.723	640.3	331.29	0.000001641	41.69	344.02	296.77	331.3	332.8	332.7	334.2	334.0	335.1	334.9	336.5	335.8	337.3	337.1	338.2	336.6	344.0	345.9	347.4
4448343.673	640.1	331.33	0.000001641	41.80	343.99	296.77	331.3	332.8	332.7	334.2	334.1	335.2	334.9	336.5	335.8	337.4	337.1	338.2	336.6	344.0	346.0	347.4
4448353.723	638.8	331.35	0.000001641	41.77	344.07	296.77	331.4	332.8	332.7	334.2	334.0	335.2	335.0	336.5	335.9	337.4	337.2	338.2	336.6	344.1	346.1	347.5
4448363.724	638.5	331.40	0.000001641	41.74	344.01	296.77	331.4	332.8	332.7	334.3	334.1	335.2	335.0	336.6	335.9	337.4	337.2	338.3	336.7	344.0	346.1	347.5
4448373.674	637.9	331.44	0.000001640	41.64	344.09	296.77	331.4	332.9	332.8	334.3	334.2	335.3	335.0	336.6	335.9	337.5	337.3	338.3	336.7	344.1	346.1	347.5
4448383.725	636.7	331.48	0.000001640	41.62	344.12	296.77	331.5	332.8	332.8	334.4	334.2	335.3	335.1	336.7	336.0	337.5	337.3	338.3	336.7	344.1	346.2	347.6
4448393.725	635.6	331.52	0.000001640	41.55	344.06	296.77	331.5	333.0	332.9	334.4	334.2	335.4	335.1	336.7	336.0	337.5	337.4	338.4	336.8	344.1	346.2	347.6
4448403.676	634.9	331.57	0.000001640	41.65	344.13	296.78	331.6	333.0	332.9	334.4	334.3	335.4	335.2	336.7	336.1	337.5	337.4	338.4	336.8	344.1	346.3	347.7
4448413.726	635.9	331.61	0.000001640	41.71	344.16	296.78	331.6	333.0	332.9	334.5	334.3	335.4	335.2	336.8	336.1	337.6	337.4	338.5	336.8	344.2	346.3	347.6
4448423.676	634.4	331.65	0.000001640	41.76	344.22	296.79	331.7	333.1	333.0	334.5	334.4	335.4	335.2	336.8	336.1	337.6	337.4	338.6	336.9	344.2	346.3	347.7
4448433.677	636.6	331.68	0.000001640	41.86	344.24	296.79	331.7	332.9	333.0	334.6	334.4	335.5	335.2	336.8	336.1	337.6	337.4	338.5	336.9	344.2	346.4	347.7
4448443.727	637.7	331.74	0.000001639	41.76	344.35	296.80	331.7	333.0	333.1	334.5	334.4	335.5	335.3	336.9	336.2	337.7	337.5	338.6	336.9	344.3	346.4	347.8
4448453.728	637.7	331.79	0.000001639	41.87	344.33	296.81	331.8	333.0	333.1	334.6	334.5	335.5	335.3	337.0	336.2	337.8	337.5	338.6	337.0	344.3	346.4	347.8
4448463.728	637.8	331.84	0.000001639	40.56	344.36	296.82	331.8	333.0	333.2	334.7	334.5	335.6	335.4	336.9	336.3	337.8	337.6	338.6	337.0	344.4	346.4	347.6
4448473.679	637.3	331.90	0.000001639	40.52	344.48	296.82	331.9	333.2	333.2	334.8	334.6	335.6	335.4	337.0	336.3	337.8	337.6	338.6	337.1	344.5	346.4	347.9
4448483.729	637.9	331.97	0.000001639	38.97	344.42	296.83	332.0	333.3	333.2	334.8	334.6	335.7	335.4	337.0	336.3	337.9	337.7	338.8	337.1	344.4	346.3	347.5
4448493.679	636.6	332.02	0.000001639	41.73	344.43	296.84	332.0	333.3	333.3	334.8	334.6	335.7	335.5	337.1	336.4	337.9	337.7	338.7	337.1	344.4	346.4	347.4
4448503.730	639.8	332.07	0.000001639	41.79	344.45	296.85	332.1	333.4	333.3	334.9	334.6	335.8	335.5	337.0	336.4	337.9	337.7	338.7	337.1	344.4	346.5	347.8
4448513.730	641.1	332.13	0.000001638	41.90	344.53	296.85	332.1	333.4	333.4	334.8	334.7	335.9	335.6	337.1	336.4	337.9	337.7	338.8	337.2	344.5	346.6	348.0
4448523.681	642.0	332.19	0.000001638	41.86	344.56	296.86	332.2	333.3	333.4	335.0	334.8	335.9	335.6	337.2	336.4	338.0	337.8	338.9	337.2	344.6	346.7	348.1
4448533.731	643.1	332.24	0.000001638	41.95	344.60	296.87	332.2	333.5	333.5	335.0	334.8	335.9	335.7	337.2	336.5	338.1	337.8	339.1	337.2	344.6	346.7	348.2
4448543.732	644.2	332.31	0.000001638	41.89	344.58	296.87	332.3	333.5	333.6	335.1	334.9	336.0	335.7	337.4	336.6	338.1	337.9	339.0	337.3	344.6	346.8	348.2
4448553.732	646.5	332.34	0.000001638	41.93	344.59	296.87	332.3	333.4	333.6	335.2	335.0	336.0	335.8	337.4	336.7	338.2	337.9	338.9	337.3	344.6	346.8	348.3
4448563.732	647.1	332.37	0.000001638	42.06	344.72	296.88	332.4	333.6	333.7	335.2	335.0	336.1	335.9	337.4	336.7	338.2	338.0	339.1	337.4	344.7	346.8	348.5
4448573.683	647.9	332.43	0.000001638	41.86	344.76	296.88	332.4	333.9	333.7	335.3	335.1	336.1	335.9	337.5	336.8	338.3	338.1	339.2	337.4	344.8	346.9	348.5
4448583.733	647.4	332.46	0.000001638	41.92	344.79	296.87	332.5	333.8	333.8	335.3	335.1	336.1	336.0	337.5	336.8	338.3	338.1	339.2	337.5	344.8	347.0	348.5
4448593.684	647.1	332.49	0.000001638	41.83	344.84	296.87	332.5	333.8	333.8	335.4	335.2	336.2	336.0	337.5	336.9	338.3	338.2	339.2	337.6	344.8	347.0	348.5
4448603.684	646.2	332.54	0.000001637	41.77	344.87	296.87	332.5	333.8	333.8	335.4	335.2	336.3	336.0	337.6	336.9	338.4	338.2	339.2	337.6	344.9	347.0	348.5
4448613.735	646.0	332.58	0.000001637	41.83	344.84	296.87	332.6	333.8	333.9	335.5	335.2	336.3	336.1	337.7	336.9	338.4	338.2	339.3	337.6	344.8	347.1	348.5
4448623.735	646.9	332.63	0.000001637	41.90	344.93	296.86	332.6	334.0	333.9	335.5	335.3	336.4	336.1	337.7	337.0	338.5	338.2	339.3	337.7	344.9	347.1	348.6
4448633.685	647.7	332.67	0.000001637	41.89	344.95	296.86	332.7	334.1	334.0	335.4	335.3	336.4	336.2	337.7	337.0	338.5	338.3	339.4	337.7	344.9	347.2	348.6
4448643.736	646.9	332.71	0.000001637	41.95	345.00	296.85	332.7	334.1	334.0	335.6	335.4	336.5	336.2	337.7	337.0	338.5	338.3	339.5	337.8	345.0	347.2	348.6
4448653.736	645.9	332.76	0.000001637	41.84	345.06	296.85	332.8	334.1	334.0	335.6	335.4	336.5	336.2	337.8	337.1	338.6	338.4	339.6	337.8	345.1	347.3	348.7
4448663.687	645.0	332.80	0.000001637	41.87	345.14	296.84	332.8	334.1	334.1	335.7	335.5	336.5	336.3	337.9	337.1	338.6	338.4	339.5	337.9	345.1	347.3	348.8
4448673.687	643.9	332.84	0.000001637	41.67	345.20	296.83	332.8	334.1	334.1	335.7	335.5	336.5	336.3	337.9	337.1	338.7	338.4	339.5	337.9	345.2	347.3	348.8
4448683.688	642.6	332.89	0.000001637	41.74	345.24	296.83	332.9	334.3	334.2	335.8	335.5	336.6	336.4	337.9	337.2	338.7	338.5	339.6	338.0	345.2	347.4	348.9
4448693.688	642.9	332.93	0.000001637	41.79	345.28	296.83	332.9	334.3	334.2	335.8	335.6	336.6	336.4	337.9	337.3	338.8	338.5	339.6	338.0	345.3	347.4	348.9
4448703.738	642.7	332.99	0.000001636	41.83	345.32	296.82	333.0	334.4	334.3	335.9	335.7	336.7	336.4	338.0	337.3	338.8	338.6	339.8	338.1	345.3	347.5	349.0
4448713.739	642.5	333.04	0.000001636	41.84	345.36	296.82	333.0	334.4	334.3	335.9	335.7	336.8	336.5	338.0	337.3	338.8	338.6	339.8	338.1	345.4	347.6	349.1
4448723.739	642.8	333.08	0.000001636	41.80	345.43	296.82	333.1	334.5	334.3	335.9	335.8	336.8	336.6	338.1	337.4	338.9	338.7	339.8	338.1	345.4	347.6	349.1
4448733.690	640.3	333.13	0.000001636	41.81	345.51	296.82	333.1	334.5	334.4	335.9	335.8	336.7	336.6	338.1	337.4	339.0	338.8	339.9	338.2	345.5	347.6	349.1
4448743.740	638.8	333.18	0.000001636	41.73	345.52	296.82	333.2	334.4	334.4	336.0	335.8	336.9	336.6	338.2	337.5	339.0	338.8	339.9	338.2	345.5	347.6	349.2
4448753.741	638.8	333.22	0.000001636	41.79	345.52	296.82	333.2	334.5	334.5	336.0	335.9	336.9	336.6	338.2	337.5	339.0	338.8	339.9	338.3	345.5	347.7	349.2
4448763.691	640.4	333.27	0.000001636	41.86	345.60	296.82	333.3	334.6	334.5	336.1	335.9	337.0	336.7	338.2	337.6	339.1	338.9	340.0	338.3	345.6	347.8	349.3
4448773.691	640.6	333.32	0.000001635	41.93	345.63	296.82	333.3	334.7	334.6	336.2	336.0	336.9	336.8	338.3	337.6	339.1	338.9	340.1	338.3	345.6	347.8	349.4
4448783.742	640.4	333.34	0.000001635	41.87	345.69	296.83	333.3	334.7	334.6	336.1	336.0	337.1	336.8	338.4	337.6	339.2	338.9	340.1	338.4	345.7	347.9	349.4
4448793.692	640.5	333.40	0.000001635	41.84	345.68	296.84	333.4	334.7	334.7	336.3	336.1	337.1	336.8	338.4	337.7	339.2	339.0	340.1	338.4	345.7	347.9	349.4
4448803.743	640.8	333.43	0.000001635	41.87	345.77	296.84	333.4	335.0	334.7	336.3	336.1	337.1	336.9	338.5	337.7	339.3	339.0	340.1	338.5	345.8	348.0	349.6
4448813.693	641.2	333.49	0.000001635	41.96	345.79	296.85	333.5	334.7	334.8	336.3	336.2	337.2	337.0	338.5	337.8	339.4	339.1	340.2	338.5	345.8	348.0	349.5
4448823.694	642.4	333.53	0.000001635	41.90	345.89	296.86	333.5	334.8	334.8	336.5	336.2	337.2	337.0	338.6	337.8	339.4	339.2	340.2	338.6	345.9	348.1	349.5
4448833.744	643.0	333.57	0.000001635	41.89	345.87	296.87	333.6	334.9	334.9	336.5	336.3	337.3	337.0	338.6	337.9	339.4	339.2	340.4	338.6	345.9	348.1	349.7
4448843.694	643.8	333.61	0.000001635	41.93	345.95	296.88	333.6	334.8	334.9	336.5	336.3	337.4	337.1	338.6	337.9	339.5	339.3	340.4	338.6	345.9	348.2	349.8
4448853.695	643.3	333.68	0.000001634	41.83	346.06	296.90	333.7	334.9	335.0	336.7	336.4	337.4	337.2	338.8	338.0	339.6	339.3	340.4	338.7	346.1	348.2	349.8
4448863.695	643.6	333.73	0.000001634	41.87	346.09	296.91	333.7	335.0	335.0	336.6	336.4	337.4	337.2	338.8	338.1	339.6	339.4	340.4	338.8	346.1	348.2	349.8
4448873.696	642.8	333.77	0.000001634	41.87	346.06	296.92	333.8	334.8	335.0	336.7	336.5	337.5	337.3	338.9	338.1	339.6	339.4	340.6	338.8	346.1	348.2	349.9
4448883.696	643.8	333.83	0.000001634	41.80	346.15	296.93	333.8	335.2	335.1	336.7	336.5	337.5	337.3	338.8	338.1	339.7	339.4	340.5	338.9	346.2	348.3	349.9
4448893.747	644.8	333.87	0.000001634	41.77	346.18	296.94	333.9	335.2	335.1	336.8	336.5	337.6	337.3	338.9	338.2	339.7	339.5	340.7	338.9	346.2	348.3	349.9
4448903.747	646.3	333.93	0.000001634	41.93	346.22	296.94	333.9	335.2	335.2	336.9	336.6	337.6	337.4	338.9	338.2	339.8	339.5	340.8	338.9	346.2	348.4	349.9
4448913.747	646.8	333.97	0.000001634	41.93	346.26	296.95	334.0	335.2	335.2	336.8	336.7	337.7	337.4	339.0	338.3	339.8	339.5	340.8	339.0	346.3	348.4	350.0
4448923.748	647.9	334.01	0.000001634	41.90	346.27	296.95	334.0	335.4	335.3	337.0	336.7	337.7	337.5	339.0	338.3	339.8	339.6	340.8	339.0	346.3	348.4	350.1
4448933.748	648.4	334.05	0.000001633	41.87	346.38	296.95	334.0	335.5	335.3	336.9	336.8	337.8	337.5	339.0	338.3	339.9	339.6	340.8	339.1	346.4	348.5	350.2
4448943.749	650.0	334.08	0.000001633	41.84	346.45	296.95	334.1	335.4	335.4	337.0	336.8	337.8	337.5	339.1	338.3	339.9	339.7	340.8	339.1	346.5	348.6	350.2
4448953.749	650.9	334.14	0.000001633	42.03	346.44	296.95	334.1	335.5	335.4	336.9	336.9	337.8	337.6	339.1	338.4	339.9	339.7	340.9	339.1	346.4	348.6	350.2
4448963.700	651.0	334.19	0.000001633	41.93	346.56	296.95	334.2	335.7	335.5	337.1	336.9	337.9	337.7	339.2	338.5	340.0	339.7	341.0	339.2	346.6	348.7	350.2
4448973.750	652.6	334.23	0.000001633	41.95	346.59	296.95	334.2	335.6	335.5	337.1	337.0	337.9	337.7	339.3	338.5	340.1	339.8	341.0	339.2	346.6	348.8	350.3
4448983.750	653.0	334.29	0.000001633	41.95	346.68	296.94	334.3	335.5	335.5	337.3	337.0	338.0	337.8	339.3	338.6	340.1	339.9	341.1	339.3	346.7	348.8	350.4
4448993.701	652.5	334.37	0.000001633	41.86	346.83	296.93	334.4	335.6	335.6	337.2	337.0	338.1	337.8	339.4	338.7	340.2	340.0	341.1	339.4	346.8	348.8	350.5
4449003.701	652.4	334.43	0.000001632	41.92	346.80	296.93	334.4	335.8	335.7	337.3	337.2	338.1	337.9	339.5	338.7	340.2	340.0	341.3	339.4	346.8	348.9	350.5
4449013.702	651.7	334.46	0.000001632	41.90	346.83	296.92	334.5	335.8	335.7	337.4	337.2	338.2	337.9	339.5	338.8	340.3	340.0	341.2	339.5	346.8	348.9	350.5
4449023.702	653.8	334.50	0.000001632	41.93	346.91	296.91	334.5	335.8	335.7	337.4	337.2	338.1	338.0	339.5	338.8	340.3	340.1	341.2	339.5	346.9	348.9	350.7
4449033.703	651.9	334.56	0.000001632	41.90	346.98	296.91	334.6	336.0	335.8	337.4	337.3	338.2	338.0	339.5	338.8	340.4	340.2	341.3	339.6	347.0	349.0	350.7
4449043.703	652.6	334.62	0.000001632	41.83	347.01	296.90	334.6	335.9	335.8	337.5	337.3	338.3	338.0	339.6	338.9	340.4	340.2	341.4	339.6	347.0	349.1	350.8
4449053.753	652.9	334.68	0.000001632	41.92	347.04	296.90	334.7	336.1	335.9	337.5	337.4	338.4	338.1	339.7	338.9	340.5	340.2	341.4	339.7	347.0	349.2	350.8
4449063.754	653.0	334.73	0.000001632	41.80	347.12	296.89	334.7	336.2	335.9	337.6	337.4	338.4	338.1	339.7	339.0	340.5	340.3	341.5	339.7	347.1	349.2	350.8
4449073.704	652.3	334.79	0.000001632	41.98	347.17	296.89	334.8	336.1	336.0	337.7	337.5	338.5	338.2	339.8	339.1	340.5	340.4	341.6	339.8	347.2	349.3	351.0
4449083.705	653.0	334.83	0.000001632	42.02	347.14	296.89	334.8	336.2	336.0	337.7	337.6	338.4	338.2	339.8	339.1	340.6	340.4	341.5	339.8	347.1	349.3	351.0
4449093.705	651.7	334.87	0.000001632	41.98	347.27	296.89	334.9	336.2	336.1	337.8	337.5	338.5	338.3	339.8	339.1	340.7	340.5	341.7	339.9	347.3	349.3	351.0
4449103.756	651.3	334.91	0.000001631	42.05	347.29	296.90	334.9	336.3	336.1	337.8	337.6	338.5	338.3	340.0	339.2	340.7	340.5	341.6	339.9	347.3	349.4	351.1
4449113.706	650.6	334.96	0.000001631	41.92	347.35	296.90	335.0	336.3	336.2	337.9	337.7	338.6	338.4	340.0	339.2	340.7	340.6	341.8	340.0	347.3	349.5	351.1
4449123.706	650.3	335.00	0.000001631	41.89	347.38	296.91	335.0	336.4	336.2	337.9	337.7	338.7	338.4	340.0	339.3	340.8	340.6	341.6	340.0	347.4	349.6	351.2
4449133.757	649.8	335.05	0.000001631	41.92	347.39	296.92	335.0	336.3	336.3	338.0	337.8	338.7	338.5	340.0	339.3	340.9	340.6	341.7	340.1	347.4	349.6	351.2
4449143.757	649.0	335.08	0.000001631	41.86	347.54	296.94	335.1	336.3	336.3	338.0	337.8	338.8	338.6	340.1	339.4	340.9	340.7	341.9	340.1	347.5	349.6	351.3
4449153.758	648.7	335.12	0.000001631	41.86	347.52	296.95	335.1	336.3	336.3	338.0	337.8	338.8	338.6	340.2	339.4	340.9	340.7	341.8	340.2	347.5	349.7	351.3
4449163.708	648.4	335.16	0.000001631	41.89	347.60	296.97	335.2	336.5	336.4	338.0	337.9	338.8	338.6	340.2	339.4	341.0	340.8	342.0	340.2	347.6	349.8	351.3
4449173.759	647.2	335.23	0.000001631	41.87	347.63	296.99	335.2	336.6	336.5	338.1	338.0	338.9	338.6	340.3	339.5	341.1	340.8	342.0	340.3	347.6	349.8	351.3
4449183.759	647.2	335.26	0.000001630	41.79	347.70	297.01	335.3	336.7	336.5	338.2	338.0	338.9	338.7	340.3	339.5	341.1	340.8	342.1	340.3	347.7	349.8	351.3
4449193.709	645.8	335.30	0.000001630	41.89	347.71	297.03	335.3	336.4	336.5	338.2	338.0	339.0	338.7	340.3	339.6	341.0	340.9	342.1	340.3	347.7	349.8	351.4
4449203.760	646.2	335.34	0.000001630	41.86	347.83	297.05	335.3	336.8	336.6	338.3	338.0	339.0	338.8	340.4	339.6	341.2	340.9	342.2	340.4	347.8	349.9	351.5
4449213.760	645.9	335.38	0.000001630	41.79	347.81	297.07	335.4	336.6	336.6	338.3	338.1	339.1	338.8	340.4	339.6	341.2	341.0	342.2	340.4	347.8	350.0	351.6
4449223.761	645.9	335.45	0.000001630	41.80	347.85	297.09	335.5	336.8	336.7	338.4	338.1	339.1	338.8	340.5	339.7	341.2	341.0	342.4	340.5	347.9	350.0	351.6
4449233.761	645.5	335.49	0.000001630	41.70	347.87	297.10	335.5	336.7	336.7	338.4	338.2	339.1	338.9	340.5	339.7	341.2	341.0	342.2	340.5	347.9	350.0	351.6
4449243.712	646.7	335.52	0.000001630	41.86	347.93	297.12	335.5	336.8	336.8	338.4	338.2	339.2	338.9	340.5	339.8	341.3	341.1	342.3	340.5	347.9	350.0	351.6
4449253.762	647.6	335.57	0.000001629	41.67	348.08	297.13	335.6	336.9	336.8	338.5	338.3	339.3	339.0	340.6	339.8	341.4	341.1	342.3	340.6	348.1	350.1	351.6
4449263.762	646.4	335.63	0.000001629	42.11	348.05	297.14	335.6	337.0	336.8	338.6	338.3	339.3	339.0	340.6	339.9	341.4	341.2	342.4	340.6	348.0	350.1	351.6
4449273.763	646.8	335.66	0.000001629	42.07	348.05	297.15	335.7	337.0	336.9	338.7	338.4	339.3	339.1	340.7	339.9	341.4	341.2	342.4	340.7	348.0	350.0	351.7
4449283.763	647.3	335.72	0.000001629	42.04	348.12	297.16	335.7	337.0	336.9	338.7	338.5	339.4	339.1	340.7	339.9	341.5	341.2	342.5	340.7	348.1	350.1	351.8
4449293.764	647.3	335.79	0.000001629	42.03	348.20	297.16	335.8	337.2	337.0	338.7	338.5	339.4	339.2	340.8	340.0	341.5	341.3	342.5	340.8	348.2	350.1	351.8
4449303.764	647.9	335.85	0.000001629	42.03	348.20	297.16	335.8	337.1	337.1	338.8	338.5	339.5	339.2	340.8	340.0	341.6	341.4	342.7	340.8	348.2	350.1	351.9
4449313.715	647.2	335.89	0.000001629	41.88	348.22	297.16	335.9	337.2	337.1	338.8	338.6	339.6	339.3	340.9	340.1	341.6	341.4	342.7	340.8	348.2	350.1	351.9
4449323.765	647.8	335.94	0.000001629	41.86	348.26	297.16	335.9	337.3	337.2	338.9	338.7	339.6	339.3	340.9	340.2	341.7	341.4	342.6	340.9	348.3	350.2	351.9
4449333.765	647.2	335.98	0.000001629	41.98	348.33	297.16	336.0	337.1	337.2	338.9	338.7	339.7	339.4	340.9	340.2	341.7	341.5	342.7	340.9	348.3	350.3	352.0
4449343.716	647.5	336.02	0.000001629	41.97	348.41	297.15	336.0	337.3	337.3	338.9	338.7	339.7	339.4	341.0	340.2	341.7	341.5	342.9	341.0	348.4	350.3	352.0
4449353.766	647.6	336.06	0.000001628	41.96	348.43	297.15	336.1	337.3	337.3	339.0	338.8	339.7	339.5	341.0	340.3	341.7	341.6	343.0	341.0	348.4	350.4	352.1
4449363.717	648.6	336.09	0.000001628	42.03	348.45	297.14	336.1	337.3	337.4	339.1	338.9	339.8	339.5	341.1	340.3	341.9	341.6	342.8	341.1	348.4	350.4	352.1
4449373.767	649.8	336.13	0.000001628	42.14	348.43	297.14	336.1	337.6	337.4	339.1	338.9	339.8	339.5	341.1	340.4	341.9	341.6	342.9	341.1	348.4	350.4	352.1
4449383.768	650.2	336.16	0.000001628	42.13	348.42	297.13	336.2	337.4	337.4	339.1	338.9	339.9	339.6	341.1	340.4	341.9	341.7	343.0	341.1	348.4	350.4	352.2
4449393.718	649.4	336.20	0.000001628	42.08	348.57	297.12	336.2	337.6	337.5	339.1	339.0	339.9	339.6	341.3	340.4	341.9	341.7	342.9	341.2	348.6	350.5	352.2
4449403.768	650.4	336.26	0.000001628	42.14	348.65	297.12	336.3	337.7	337.5	339.2	339.1	339.9	339.7	341.2	340.5	342.0	341.8	342.9	341.2	348.7	350.6	352.3
4449413.719	651.0	336.32	0.000001628	42.13	348.66	297.11	336.3	337.6	337.6	339.3	339.1	340.0	339.7	341.4	340.5	342.0	341.8	343.1	341.3	348.7	350.6	352.4
4449423.769	651.0	336.36	0.000001628	42.14	348.66	297.11	336.4	337.7	337.6	339.3	339.1	340.0	339.8	341.3	340.6	342.1	341.8	343.2	341.3	348.7	350.7	352.4
4449433.770	650.5	336.41	0.000001627	42.10	348.81	297.11	336.4	337.7	337.7	339.4	339.2	340.1	339.8	341.4	340.6	342.2	341.9	343.2	341.3	348.8	350.7	352.4
4449443.770	650.4	336.47	0.000001627	42.13	348.77	297.10	336.5	337.8	337.7	339.4	339.3	340.1	339.9	341.4	340.7	342.3	342.0	343.3	341.4	348.8	350.8	352.5
4449453.721	651.1	336.50	0.000001627	42.13	348.84	297.10	336.5	337.6	337.7	339.4	339.3	340.2	339.9	341.5	340.7	342.2	342.0	343.2	341.4	348.8	350.7	352.5
4449463.771	653.0	336.53	0.000001627	42.30	348.90	297.10	336.5	337.8	337.8	339.6	339.3	340.3	339.9	341.5	340.8	342.3	342.0	343.3	341.5	348.9	350.9	352.6
4449473.771	653.1	336.57	0.000001627	42.34	348.91	297.10	336.6	337.9	337.8	339.5	339.4	340.2	340.0	341.6	340.8	342.3	342.1	343.3	341.5	348.9	350.9	352.6
4449483.772	654.2	336.63	0.000001627	42.26	348.98	297.10	336.6	337.9	337.9	339.6	339.4	340.3	340.0	341.6	340.9	342.3	342.1	343.5	341.6	349.0	351.0	352.8
4449493.772	654.3	336.67	0.000001627	42.29	349.09	297.10	336.7	338.0	337.9	339.6	339.4	340.4	340.1	341.7	340.9	342.4	342.2	343.4	341.6	349.1	351.0	352.8
4449503.773	654.8	336.71	0.000001627	42.31	349.12	297.11	336.7	338.1	338.0	339.7	339.5	340.4	340.1	341.7	340.9	342.5	342.3	343.7	341.7	349.1	351.1	352.7
4449513.723	654.9	336.76	0.000001627	42.30	349.19	297.11	336.8	338.1	338.0	339.7	339.5	340.5	340.2	341.8	341.0	342.5	342.3	343.6	341.7	349.2	351.2	352.8
4449523.723	655.0	336.84	0.000001626	42.23	349.22	297.12	336.8	338.0	338.1	339.9	339.6	340.5	340.2	341.8	341.1	342.7	342.3	343.6	341.8	349.2	351.2	352.9
4449533.774	655.0	336.88	0.000001626	42.14	349.25	297.13	336.9	338.2	338.1	339.9	339.6	340.5	340.3	341.9	341.1	342.6	342.4	343.7	341.9	349.2	351.3	353.0
4449543.774	655.2	336.92	0.000001626	42.23	349.38	297.14	336.9	338.3	338.1	339.9	339.7	340.6	340.3	341.9	341.1	342.7	342.4	343.8	341.9	349.4	351.3	353.1
4449553.775	654.8	336.95	0.000001626	42.21	349.39	297.16	336.9	338.3	338.2	339.9	339.7	340.6	340.3	341.9	341.1	342.7	342.4	343.9	341.9	349.4	351.4	353.1
4449563.775	654.3	337.00	0.000001626	42.23	349.40	297.17	337.0	338.5	338.3	340.0	339.8	340.6	340.4	342.0	341.2	342.7	342.5	343.8	342.0	349.4	351.4	353.1
4449573.726	654.4	337.04	0.000001626	42.03	349.44	297.19	337.0	338.3	338.3	340.0	339.8	340.7	340.4	342.0	341.3	342.8	342.6	343.8	342.0	349.4	351.4	353.2
4449583.726	653.8	337.09	0.000001626	42.00	349.55	297.21	337.1	338.4	338.3	340.0	339.9	340.8	340.5	342.0	341.3	342.8	342.5	343.9	342.1	349.5	351.5	353.2
4449593.726	653.1	337.13	0.000001626	42.01	349.54	297.23	337.1	338.4	338.4	340.1	339.9	340.8	340.6	342.1	341.3	342.9	342.6	343.9	342.1	349.5	351.6	353.3
4449603.727	653.9	337.17	0.000001625	41.98	349.66	297.25	337.2	338.7	338.4	340.2	339.9	340.8	340.6	342.1	341.4	342.9	342.7	344.0	342.1	349.7	351.6	353.3
4449613.727	653.4	337.22	0.000001625	42.08	349.63	297.27	337.2	338.4	338.4	340.2	340.0	341.0	340.6	342.2	341.4	342.9	342.7	344.0	342.2	349.6	351.6	353.3
4449623.728	654.0	337.25	0.000001625	42.11	349.77	297.30	337.3	338.6	338.5	340.3	340.0	340.9	340.7	342.2	341.5	343.0	342.7	344.1	342.2	349.8	351.7	353.4
4449633.728	654.8	337.29	0.000001625	42.23	349.74	297.32	337.3	338.6	338.5	340.4	340.1	341.0	340.7	342.3	341.5	343.0	342.8	344.1	342.3	349.7	351.7	353.4
4449643.729	654.8	337.34	0.000001625	42.23	349.74	297.34	337.3	338.6	338.6	340.4	340.1	341.0	340.7	342.3	341.5	343.1	342.8	344.2	342.3	349.7	351.8	353.4
4449653.779	653.9	337.40	0.000001625	42.14	349.81	297.36	337.4	338.9	338.6	340.5	340.2	341.1	340.8	342.4	341.6	343.1	342.9	344.2	342.4	349.8	351.9	353.5
4449663.779	653.1	337.44	0.000001625	42.04	349.87	297.38	337.4	338.7	338.7	340.4	340.2	341.1	340.8	342.5	341.6	343.2	342.9	344.3	342.4	349.9	351.9	353.5
4449673.780	653.4	337.49	0.000001625	42.08	349.91	297.40	337.5	338.9	338.7	340.5	340.3	341.1	340.9	342.5	341.7	343.2	343.0	344.3	342.5	349.9	351.9	353.6
4449683.780	651.9	337.53	0.000001625	42.08	349.97	297.42	337.5	338.9	338.8	340.6	340.3	341.3	340.9	342.5	341.7	343.3	343.0	344.3	342.5	350.0	352.0	353.6
4449693.731	652.5	337.56	0.000001625	42.16	349.97	297.43	337.6	339.0	338.8	340.7	340.3	341.2	341.0	342.6	341.8	343.3	343.1	344.4	342.5	350.0	352.0	353.6
4449703.731	653.3	337.61	0.000001624	42.11	350.11	297.45	337.6	338.9	338.8	340.7	340.4	341.3	341.0	342.6	341.8	343.3	343.1	344.4	342.6	350.1	352.0	353.7
4449713.732	653.3	337.67	0.000001624	42.10	350.10	297.46	337.7	339.1	338.9	340.8	340.4	341.4	341.1	342.7	341.9	343.5	343.2	344.5	342.6	350.1	352.1	353.8
4449723.782	653.2	337.72	0.000001624	42.10	350.16	297.47	337.7	338.9	338.9	340.7	340.5	341.4	341.1	342.7	341.9	343.4	343.2	344.5	342.7	350.2	352.1	353.9
4449733.732	653.1	337.76	0.000001624	42.11	350.13	297.47	337.8	339.2	339.0	340.8	340.6	341.4	341.2	342.8	341.9	343.5	343.3	344.7	342.7	350.1	352.2	353.9
4449743.783	652.9	337.81	0.000001624	42.16	350.27	297.47	337.8	339.3	339.0	340.8	340.6	341.5	341.2	342.8	342.0	343.5	343.3	344.6	342.8	350.3	352.2	353.9
4449753.733	651.8	337.83	0.000001624	42.24	350.35	297.47	337.8	339.1	339.1	341.0	340.7	341.6	341.2	342.9	342.0	343.6	343.3	344.7	342.8	350.4	352.2	354.0
4449763.784	652.7	337.87	0.000001624	42.18	350.35	297.47	337.9	339.2	339.1	340.9	340.7	341.5	341.3	342.9	342.1	343.6	343.4	344.8	342.9	350.3	352.3	354.0
4449773.784	653.0	337.91	0.000001624	42.17	350.42	297.46	337.9	339.2	339.1	340.9	340.7	341.6	341.3	342.9	342.1	343.7	343.4	344.7	342.9	350.4	352.4	354.0
4449783.785	652.5	337.96	0.000001624	42.10	350.43	297.45	338.0	339.2	339.2	341.0	340.8	341.6	341.4	343.0	342.2	343.7	343.5	344.8	343.0	350.4	352.4	354.1
4449793.735	653.4	338.01	0.000001623	42.18	350.47	297.44	338.0	339.5	339.2	341.1	340.8	341.7	341.4	343.0	342.2	343.8	343.5	345.0	343.0	350.5	352.4	354.1
4449803.735	652.8	338.06	0.000001623	42.11	350.56	297.43	338.1	339.5	339.3	341.1	340.9	341.7	341.5	343.1	342.3	343.8	343.6	345.1	343.0	350.6	352.5	354.2
4449813.786	653.1	338.09	0.000001623	42.11	350.61	297.41	338.1	339.5	339.3	341.3	341.0	341.8	341.5	343.1	342.3	343.8	343.6	345.1	343.1	350.6	352.5	354.3
4449823.786	653.8	338.15	0.000001623	42.14	350.67	297.40	338.1	339.4	339.4	341.2	341.0	341.9	341.6	343.2	342.4	343.9	343.7	345.1	343.1	350.7	352.6	354.3
4449833.787	653.0	338.18	0.000001623	42.14	350.71	297.38	338.2	339.7	339.4	341.2	341.0	341.8	341.6	343.3	342.4	344.0	343.7	345.0	343.2	350.7	352.6	354.3
4449843.737	653.3	338.22	0.000001623	42.14	350.84	297.36	338.2	339.5	339.5	341.3	341.0	341.9	341.7	343.2	342.4	344.0	343.8	345.0	343.2	350.8	352.7	354.4
4449853.738	653.8	338.26	0.000001623	41.99	350.85	297.35	338.3	339.6	339.5	341.3	341.1	342.0	341.7	343.3	342.5	344.0	343.8	345.3	343.2	350.8	352.7	354.4
4449863.788	653.5	338.29	0.000001623	42.03	350.75	297.33	338.3	339.9	339.5	341.3	341.2	342.0	341.7	343.4	342.5	344.1	343.8	345.1	343.3	350.8	352.7	354.4
4449873.788	653.2	338.34	0.000001623	42.07	350.84	297.32	338.3	339.6	339.6	341.4	341.2	342.0	341.7	343.4	342.6	344.1	343.9	345.2	343.3	350.8	352.7	354.5
4449883.789	654.1	338.39	0.000001622	42.04	350.89	297.31	338.4	339.7	339.6	341.5	341.2	342.1	341.8	343.4	342.6	344.1	343.9	345.3	343.3	350.9	352.9	354.5
4449893.789	653.4	338.44	0.000001622	41.73	350.89	297.30	338.4	339.8	339.7	341.5	341.3	342.1	341.9	343.4	342.6	344.2	343.9	345.3	343.4	350.9	352.9	354.5
4449903.740	654.8	338.48	0.000001622	41.87	350.95	297.29	338.5	339.8	339.7	341.4	341.3	342.2	341.9	343.5	342.7	344.2	343.9	345.4	343.4	351.0	352.8	354.5
4449913.740	654.5	338.54	0.000001622	41.78	350.96	297.28	338.5	339.7	339.7	341.6	341.4	342.2	341.9	343.6	342.7	344.3	344.1	345.4	343.5	351.0	352.9	354.6
4449923.791	654.2	338.60	0.000001622	42.03	351.06	297.28	338.6	340.2	339.8	341.7	341.4	342.3	342.0	343.6	342.8	344.3	344.1	345.3	343.5	351.1	353.0	354.6
4449933.791	653.9	338.64	0.000001622	41.80	351.14	297.27	338.6	339.9	339.9	341.7	341.5	342.3	342.1	343.7	342.8	344.4	344.1	345.5	343.6	351.1	353.0	354.7
4449943.791	654.6	338.68	0.000001622	41.80	351.14	297.27	338.7	340.0	339.9	341.8	341.6	342.3	342.1	343.7	342.9	344.5	344.2	345.6	343.6	351.1	353.1	354.8
4449953.792	654.6	338.70	0.000001622	41.94	351.20	297.27	338.7	340.1	339.9	341.8	341.6	342.5	342.2	343.7	342.9	344.5	344.2	345.5	343.7	351.2	353.1	354.7
4449963.742	654.1	338.73	0.000001622	41.91	351.25	297.27	338.7	339.9	340.0	341.8	341.6	342.5	342.2	343.8	343.0	344.5	344.3	345.7	343.7	351.2	353.1	354.8
4449973.793	654.8	338.76	0.000001622	41.88	351.29	297.28	338.8	340.1	340.0	341.8	341.7	342.6	342.2	343.8	343.0	344.6	344.3	345.7	343.8	351.3	353.2	354.9
4449983.793	654.5	338.83	0.000001621	42.00	351.23	297.28	338.8	340.2	340.0	342.0	341.7	342.6	342.3	343.9	343.1	344.6	344.4	345.9	343.8	351.2	353.3	354.9
4449993.744	654.6	338.87	0.000001621	41.61	351.42	297.29	338.9	340.1	340.1	342.0	341.7	342.6	342.3	344.0	343.1	344.7	344.4	345.7	343.8	351.4	353.3	354.9
4450003.794	653.8	338.91	0.000001621	42.20	351.40	297.29	338.9	340.3	340.1	342.1	341.8	342.7	342.4	344.0	343.1	344.8	344.4	345.9	343.9	351.4	353.4	354.9
4450013.794	655.3	338.96	0.000001621	42.04	351.51	297.30	339.0	340.2	340.2	342.1	341.9	342.7	342.4	344.1	343.2	344.8	344.5	346.0	343.9	351.5	353.4	355.0
4450023.745	654.8	339.02	0.000001621	42.76	351.61	297.30	339.0	340.2	340.2	342.1	341.9	342.8	342.5	344.1	343.2	344.8	344.5	346.0	344.0	351.6	353.3	355.0
4450033.745	655.3	339.07	0.000001621	42.71	351.57	297.31	339.1	340.5	340.3	342.1	341.9	342.8	342.5	344.1	343.3	344.8	344.6	345.9	344.0	351.6	353.4	355.0
4450043.796	654.3	339.11	0.000001621	42.80	351.57	297.32	339.1	340.5	340.3	342.2	341.9	342.8	342.5	344.1	343.3	344.8	344.6	345.9	344.1	351.6	353.4	355.0
4450053.796	653.3	339.16	0.000001621	42.71	351.61	297.33	339.2	340.4	340.4	342.3	342.0	342.8	342.5	344.1	343.3	344.8	344.6	346.0	344.1	351.6	353.3	355.0
4450063.747	653.0	339.22	0.000001620	42.79	351.69	297.34	339.2	340.5	340.4	342.3	342.1	342.9	342.6	344.1	343.3	344.9	344.6	346.1	344.1	351.7	353.4	355.0
4450073.797	651.4	339.27	0.000001620	42.74	351.80	297.35	339.3	340.6	340.5	342.3	342.1	342.9	342.6	344.2	343.4	344.9	344.6	346.1	344.1	351.8	353.4	355.1
4450083.747	652.0	339.33	0.000001620	42.32	351.96	297.36	339.3	340.5	340.5	342.3	342.1	342.9	342.7	344.2	343.4	344.9	344.7	346.1	344.2	352.0	353.5	355.1
4450093.798	649.7	339.36	0.000001620	42.63	351.86	297.37	339.4	340.7	340.6	342.5	342.1	343.0	342.7	344.3	343.5	345.0	344.7	346.2	344.2	351.9	353.6	355.1
4450103.798	650.4	339.41	0.000001620	42.64	351.80	297.38	339.4	340.7	340.6	342.4	342.3	343.0	342.7	344.3	343.5	345.0	344.7	346.1	344.3	351.8	353.6	355.2
4450113.799	650.7	339.49	0.000001620	42.69	351.94	297.40	339.5	340.9	340.7	342.6	342.3	343.1	342.8	344.3	343.6	345.1	344.8	346.2	344.3	351.9	353.6	355.2
4450123.749	649.0	339.52	0.000001620	42.73	352.01	297.41	339.5	340.6	340.7	342.6	342.3	343.1	342.9	344.4	343.6	345.1	344.8	346.3	344.3	352.0	353.6	355.3
4450133.800	649.6	339.55	0.000001620	42.70	351.93	297.43	339.6	340.9	340.7	342.6	342.3	343.1	342.9	344.4	343.6	345.2	344.9	346.5	344.4	351.9	353.7	355.3
4450143.800	648.4	339.60	0.000001620	42.73	352.03	297.44	339.6	340.9	340.8	342.6	342.4	343.1	342.9	344.4	343.6	345.1	344.9	346.4	344.4	352.0	353.7	355.3
4450153.800	649.0	339.66	0.000001619	42.67	351.99	297.46	339.7	340.9	340.8	342.7	342.5	343.3	343.0	344.5	343.7	345.2	344.9	346.4	344.5	352.0	353.7	355.4
4450163.801	648.2	339.71	0.000001619	42.63	352.01	297.48	339.7	341.0	340.9	342.8	342.5	343.3	343.0	344.6	343.7	345.2	345.0	346.4	344.5	352.0	353.8	355.4
4450173.801	647.5	339.74	0.000001619	42.69	352.07	297.50	339.7	341.0	340.9	342.7	342.5	343.3	343.0	344.6	343.8	345.2	345.0	346.5	344.5	352.1	353.8	355.4
4450183.752	647.2	339.79	0.000001619	42.60	352.08	297.52	339.8	341.1	341.0	342.8	342.6	343.4	343.1	344.7	343.8	345.3	345.1	346.6	344.6	352.1	353.9	355.5
4450193.752	646.6	339.83	0.000001619	42.64	352.11	297.54	339.8	341.2	341.0	342.9	342.6	343.4	343.1	344.6	343.8	345.4	345.1	346.8	344.6	352.1	353.9	355.5
4450203.803	646.3	339.90	0.000001619	42.60	352.22	297.55	339.9	341.2	341.1	342.9	342.6	343.4	343.2	344.7	343.9	345.5	345.2	346.6	344.7	352.2	353.9	355.5
4450213.803	647.8	339.97	0.000001619	42.66	352.29	297.57	340.0	341.3	341.1	343.0	342.7	343.4	343.2	344.8	343.9	345.5	345.3	346.6	344.7	352.3	353.9	355.6
4450223.803	647.8	340.01	0.000001619	42.67	352.25	297.59	340.0	341.4	341.2	343.1	342.7	343.5	343.3	344.8	344.0	345.5	345.3	346.7	344.7	352.2	354.0	355.7
4450233.804	647.0	340.06	0.000001619	42.70	352.27	297.61	340.1	341.4	341.2	343.0	342.8	343.5	343.3	344.9	344.0	345.6	345.3	346.7	344.8	352.3	354.1	355.7
4450243.804	649.0	340.08	0.000001619	42.66	352.36	297.62	340.1	341.2	341.2	343.1	342.9	343.6	343.3	344.9	344.1	345.6	345.3	346.6	344.8	352.4	354.2	355.8
4450253.805	648.3	340.16	0.000001618	42.71	352.51	297.64	340.2	341.4	341.3	343.2	342.9	343.6	343.4	345.0	344.2	345.7	345.4	346.9	344.9	352.5	354.2	355.8
4450263.805	648.6	340.20	0.000001618	42.67	352.41	297.65	340.2	341.4	341.3	343.2	343.0	343.7	343.4	345.0	344.2	345.7	345.5	346.9	344.9	352.4	354.3	355.9
4450273.756	650.4	340.23	0.000001618	42.71	352.58	297.67	340.2	341.6	341.4	343.2	343.0	343.7	343.5	345.1	344.2	345.7	345.5	346.8	345.0	352.6	354.3	355.9
4450283.806	650.6	340.28	0.000001618	42.59	352.62	297.68	340.3	341.6	341.4	343.3	343.0	343.7	343.5	345.1	344.3	345.8	345.6	347.0	345.0	352.6	354.3	355.9
4450293.756	650.8	340.31	0.000001618	42.71	352.59	297.69	340.3	341.7	341.5	343.3	343.1	343.8	343.6	345.1	344.3	345.8	345.5	346.9	345.0	352.6	354.4	355.9
4450303.807	651.3	340.37	0.000001618	42.73	352.67	297.70	340.4	341.8	341.5	343.4	343.2	343.9	343.6	345.2	344.3	345.9	345.6	347.1	345.1	352.7	354.4	356.0
4450313.807	651.7	340.39	0.000001618	42.73	352.63	297.72	340.4	341.5	341.5	343.5	343.1	343.9	343.6	345.2	344.4	345.9	345.7	347.1	345.2	352.6	354.5	356.2
4450323.758	651.5	340.45	0.000001618	42.69	352.70	297.73	340.4	341.9	341.6	343.5	343.2	343.9	343.7	345.3	344.4	345.9	345.7	347.2	345.2	352.7	354.5	356.2
4450333.808	652.2	340.50	0.000001617	42.77	352.81	297.73	340.5	341.9	341.6	343.5	343.3	344.0	343.7	345.3	344.5	346.0	345.7	347.2	345.2	352.8	354.6	356.3
4450343.809	652.9	340.55	0.000001617	42.87	352.73	297.74	340.5	341.8	341.7	343.5	343.4	344.0	343.8	345.4	344.5	346.0	345.8	347.3	345.3	352.7	354.6	356.2
4450353.809	653.6	340.60	0.000001617	42.83	352.90	297.74	340.6	341.9	341.7	343.5	343.4	344.1	343.8	345.5	344.6	346.1	345.9	347.4	345.3	352.9	354.6	356.3
4450363.759	654.7	340.64	0.000001617	42.84	352.89	297.75	340.6	341.9	341.8	343.7	343.4	344.2	343.9	345.5	344.6	346.1	345.9	347.3	345.4	352.9	354.7	356.3
4450373.760	655.3	340.67	0.000001617	42.86	352.91	297.75	340.7	341.9	341.8	343.7	343.4	344.2	343.9	345.5	344.6	346.2	345.9	347.4	345.4	352.9	354.8	356.4
4450383.810	655.2	340.72	0.000001617	42.79	352.96	297.75	340.7	342.1	341.9	343.8	343.5	344.2	344.0	345.5	344.7	346.2	346.0	347.4	345.5	353.0	354.9	356.4
4450393.761	656.0	340.75	0.000001617	42.81	353.02	297.75	340.7	342.0	341.9	343.8	343.5	344.3	344.0	345.6	344.8	346.2	346.1	347.4	345.5	353.0	354.9	356.5
4450403.761	655.6	340.78	0.000001617	42.84	353.10	297.74	340.8	341.9	342.0	343.8	343.6	344.3	344.1	345.6	344.8	346.3	346.1	347.6	345.5	353.1	354.9	356.5
4450413.762	655.9	340.82	0.000001617	42.84	353.09	297.74	340.8	342.1	342.0	343.8	343.6	344.4	344.1	345.7	344.9	346.4	346.1	347.5	345.6	353.1	355.0	356.6
4450423.762	655.6	340.88	0.000001617	42.81	353.13	297.73	340.9	342.2	342.0	343.9	343.6	344.4	344.1	345.7	344.9	346.4	346.1	347.6	345.7	353.1	355.0	356.7
4450433.812	655.6	340.93	0.000001616	42.80	353.23	297.72	340.9	342.2	342.1	344.0	343.7	344.4	344.2	345.8	344.9	346.4	346.2	347.7	345.7	353.2	355.0	356.7
4450443.763	655.9	340.97	0.000001616	42.90	353.27	297.71	341.0	342.3	342.1	343.9	343.7	344.4	344.2	345.8	344.9	346.5	346.2	347.8	345.7	353.3	355.1	356.7
4450453.763	656.5	341.00	0.000001616	42.89	353.25	297.70	341.0	342.6	342.1	344.0	343.8	344.5	344.3	345.9	345.0	346.5	346.3	347.7	345.8	353.3	355.1	356.7
4450463.814	656.4	341.05	0.000001616	42.79	353.37	297.70	341.0	342.6	342.2	344.1	343.8	344.6	344.3	345.8	345.0	346.5	346.3	347.7	345.8	353.4	355.1	356.8
4450473.814	656.3	341.09	0.000001616	42.79	353.26	297.69	341.1	342.5	342.2	344.1	343.9	344.6	344.3	345.9	345.1	346.6	346.3	347.8	345.8	353.3	355.2	356.8
4450483.815	655.8	341.13	0.000001616	42.73	353.40	297.68	341.1	342.3	342.3	344.1	343.9	344.6	344.4	345.9	345.1	346.6	346.4	347.9	345.9	353.4	355.2	356.8
4450493.815	656.0	341.16	0.000001616	42.81	353.52	297.67	341.2	342.6	342.3	344.3	344.0	344.7	344.4	346.0	345.1	346.7	346.4	347.9	345.9	353.5	355.3	356.9
4450503.815	656.5	341.20	0.000001616	42.84	353.54	297.67	341.2	342.6	342.3	344.1	344.0	344.7	344.5	346.0	345.2	346.7	346.4	347.9	345.9	353.5	355.3	356.9
4450513.816	655.5	341.24	0.000001616	42.77	353.45	297.66	341.2	342.6	342.4	344.3	344.0	344.8	344.5	346.1	345.2	346.8	346.5	348.0	346.0	353.4	355.3	356.9
4450523.816	655.1	341.29	0.000001616	42.89	353.43	297.66	341.3	342.7	342.4	344.3	344.1	344.8	344.5	346.1	345.2	346.8	346.5	348.1	346.0	353.4	355.3	356.9
4450533.767	657.1	341.33	0.000001615	42.86	353.59	297.66	341.3	342.8	342.5	344.4	344.1	344.9	344.6	346.2	345.3	346.8	346.6	348.1	346.1	353.6	355.4	357.0
4450543.767	657.1	341.37	0.000001615	42.91	353.58	297.66	341.4	342.8	342.5	344.4	344.2	344.9	344.6	346.2	345.3	346.9	346.6	348.0	346.1	353.6	355.5	357.0
4450553.818	656.5	341.41	0.000001615	42.77	353.69	297.66	341.4	342.7	342.6	344.5	344.2	344.9	344.6	346.2	345.4	346.8	346.6	348.1	346.1	353.7	355.5	357.0
4450563.768	655.2	341.43	0.000001615	42.71	353.68	297.66	341.4	342.9	342.6	344.5	344.3	345.0	344.7	346.3	345.4	346.9	346.7	348.2	346.2	353.7	355.5	357.1
4450573.768	655.2	341.47	0.000001615	42.61	353.79	297.66	341.5	342.9	342.6	344.6	344.3	345.0	344.7	346.3	345.5	347.0	346.7	348.3	346.2	353.8	355.5	357.1
4450583.819	654.7	341.51	0.000001615	42.73	353.81	297.66	341.5	342.9	342.7	344.6	344.3	345.0	344.8	346.4	345.5	347.0	346.8	348.3	346.3	353.8	355.6	357.1
4450593.769	656.3	341.57	0.000001615	42.74	353.80	297.67	341.6	342.8	342.7	344.6	344.4	345.1	344.8	346.4	345.5	347.1	346.8	348.2	346.3	353.8	355.6	357.2
4450603.770	658.7	341.60	0.000001615	42.83	353.88	297.67	341.6	343.0	342.8	344.7	344.4	345.1	344.9	346.4	345.6	347.1	346.8	348.3	346.3	353.9	355.6	357.2
4450613.820	659.8	341.63	0.000001615	42.81	353.91	297.68	341.6	343.0	342.8	344.7	344.4	345.2	344.9	346.5	345.6	347.1	346.9	348.3	346.4	353.9	355.7	357.3
4450623.771	659.6	341.67	0.000001615	42.89	353.99	297.68	341.7	343.1	342.8	344.8	344.4	345.2	345.0	346.6	345.6	347.2	346.9	348.4	346.4	354.0	355.8	357.3
4450633.771	659.9	341.72	0.000001614	42.86	354.04	297.69	341.7	343.2	342.9	344.9	344.5	345.3	345.0	346.6	345.7	347.2	347.0	348.4	346.5	354.0	355.8	357.3
4450643.771	658.7	341.76	0.000001614	42.84	354.04	297.70	341.8	343.2	342.9	344.9	344.6	345.3	345.0	346.6	345.7	347.3	347.0	348.6	346.5	354.0	355.9	357.4
4450653.822	658.4	341.80	0.000001614	42.86	354.20	297.70	341.8	343.2	342.9	344.8	344.6	345.4	345.1	346.6	345.8	347.4	347.1	348.6	346.5	354.2	355.8	357.4
4450663.772	659.2	341.85	0.000001614	42.79	354.10	297.71	341.9	343.1	343.0	345.0	344.7	345.4	345.1	346.7	345.8	347.4	347.1	348.4	346.6	354.1	356.0	357.4
4450673.773	659.2	341.88	0.000001614	42.80	354.16	297.72	341.9	343.3	343.0	345.0	344.7	345.5	345.1	346.7	345.9	347.4	347.1	348.7	346.6	354.2	355.9	357.5
4450683.823	659.0	341.92	0.000001614	42.86	354.38	297.72	341.9	343.3	343.1	345.1	344.7	345.4	345.2	346.7	345.9	347.5	347.1	348.6	346.7	354.4	356.1	357.5
4450693.774	658.1	341.97	0.000001614	42.71	354.24	297.73	342.0	343.4	343.1	345.1	344.7	345.5	345.2	346.8	345.9	347.4	347.2	348.6	346.7	354.2	356.1	357.6
4450703.774	657.4	342.00	0.000001614	42.77	354.38	297.73	342.0	343.4	343.2	345.1	344.9	345.5	345.3	346.8	346.0	347.5	347.2	348.8	346.7	354.4	356.0	357.6
4450713.824	657.2	342.04	0.000001614	42.79	354.30	297.73	342.0	343.3	343.2	345.1	344.9	345.6	345.3	346.9	346.0	347.5	347.3	348.7	346.8	354.3	356.0	357.6
4450723.775	656.5	342.08	0.000001614	42.64	354.38	297.73	342.1	343.3	343.2	345.2	344.9	345.7	345.3	346.9	346.0	347.6	347.3	348.9	346.8	354.4	356.2	357.7
4450733.825	656.7	342.12	0.000001613	42.73	354.55	297.73	342.1	343.4	343.3	345.2	345.0	345.7	345.4	347.0	346.1	347.7	347.4	348.9	346.9	354.5	356.2	357.7
4450743.776	656.7	342.16	0.000001613	42.73	354.47	297.73	342.2	343.5	343.3	345.2	345.0	345.8	345.4	347.0	346.1	347.6	347.4	348.8	346.9	354.5	356.2	357.8
4450753.776	655.8	342.19	0.000001613	42.80	354.56	297.73	342.2	343.5	343.4	345.3	345.1	345.8	345.5	347.0	346.2	347.7	347.5	349.1	346.9	354.6	356.3	357.8
4450763.777	655.3	342.24	0.000001613	42.74	354.66	297.72	342.2	343.6	343.4	345.3	345.1	345.8	345.5	347.1	346.2	347.8	347.5	348.9	347.0	354.7	356.3	357.8
4450773.827	654.2	342.26	0.000001613	42.83	354.54	297.72	342.3	343.5	343.4	345.4	345.1	345.8	345.6	347.2	346.2	347.8	347.5	349.2	347.0	354.5	356.4	357.9
4450783.777	653.7	342.32	0.000001613	42.73	354.71	297.71	342.3	343.8	343.5	345.4	345.2	345.9	345.6	347.1	346.3	347.8	347.5	349.0	347.0	354.7	356.4	357.9
4450793.778	653.9	342.36	0.000001613	42.81	354.74	297.70	342.4	343.7	343.5	345.5	345.2	346.0	345.6	347.1	346.3	347.9	347.6	349.0	347.1	354.7	356.4	357.9
4450803.828	654.1	342.41	0.000001613	42.77	354.69	297.69	342.4	343.8	343.6	345.6	345.3	346.0	345.6	347.2	346.4	347.9	347.6	349.1	347.1	354.7	356.4	357.9
4450813.829	653.3	342.45	0.000001613	42.76	354.72	297.69	342.4	343.6	343.6	345.6	345.3	346.0	345.7	347.2	346.4	347.9	347.7	349.4	347.2	354.7	356.5	358.0
4450823.829	651.8	342.47	0.000001613	42.71	354.76	297.68	342.5	343.7	343.6	345.5	345.3	346.0	345.7	347.3	346.4	347.9	347.7	349.3	347.2	354.8	356.5	358.0
4450833.780	652.3	342.54	0.000001612	42.79	354.92	297.67	342.5	343.8	343.7	345.6	345.4	346.0	345.8	347.4	346.5	348.1	347.7	349.3	347.2	354.9	356.6	358.1
4450843.830	652.3	342.56	0.000001612	42.77	354.93	297.66	342.6	343.9	343.7	345.7	345.4	346.1	345.8	347.4	346.5	348.1	347.8	349.5	347.3	354.9	356.7	358.1
4450853.830	651.1	342.60	0.000001612	42.74	354.95	297.65	342.6	344.0	343.7	345.7	345.5	346.2	345.9	347.5	346.5	348.1	347.8	349.5	347.4	355.0	356.7	358.1
4450863.831	649.7	342.63	0.000001612	42.63	355.08	297.64	342.6	344.0	343.8	345.8	345.5	346.2	345.9	347.5	346.6	348.2	347.9	349.4	347.4	355.1	356.7	358.1
4450873.831	650.0	342.69	0.000001612	42.66	354.93	297.63	342.7	344.1	343.8	345.9	345.5	346.3	345.9	347.5	346.6	348.2	347.9	349.5	347.4	354.9	356.8	358.2
4450883.832	649.7	342.72	0.000001612	42.76	354.97	297.63	342.7	344.2	343.9	345.8	345.6	346.3	346.0	347.6	346.7	348.3	348.0	349.6	347.5	355.0	356.8	358.3
4450893.832	650.2	342.76	0.000001612	42.66	355.15	297.62	342.8	344.1	343.9	345.9	345.6	346.3	346.0	347.6	346.7	348.3	348.0	349.6	347.5	355.2	356.9	358.3
4450903.833	648.9	342.80	0.000001612	42.61	355.21	297.61	342.8	344.0	344.0	345.9	345.7	346.3	346.1	347.8	346.8	348.3	348.1	349.6	347.6	355.2	356.9	358.3
4450913.783	649.5	342.87	0.000001612	42.69	355.23	297.60	342.9	344.4	344.0	346.0	345.7	346.4	346.1	347.7	346.8	348.4	348.1	349.6	347.6	355.2	356.9	358.3
4450923.833	649.3	342.90	0.000001611	42.60	355.25	297.60	342.9	344.3	344.0	346.0	345.7	346.4	346.2	347.7	346.8	348.4	348.1	349.6	347.6	355.3	357.0	358.4
4450933.834	648.5	342.94	0.000001611	42.51	355.27	297.59	342.9	344.2	344.1	346.0	345.8	346.5	346.2	347.8	346.9	348.4	348.2	349.8	347.6	355.3	357.1	358.4
4450943.784	648.0	342.97	0.000001611	42.49	355.29	297.58	343.0	344.3	344.1	346.1	345.8	346.5	346.2	347.8	346.9	348.5	348.2	349.9	347.7	355.3	357.0	358.5
4450953.785	649.5	343.01	0.000001611	42.64	355.38	297.58	343.0	344.4	344.2	346.1	345.9	346.5	346.3	347.8	347.0	348.4	348.2	350.0	347.7	355.4	357.1	358.5
4450963.835	648.3	343.05	0.000001611	42.74	355.45	297.58	343.1	344.5	344.2	346.1	345.9	346.6	346.3	347.8	347.0	348.5	348.2	350.0	347.8	355.4	357.1	358.6
4450973.836	647.6	343.09	0.000001611	42.61	355.53	297.58	343.1	344.3	344.2	346.2	346.0	346.6	346.3	347.9	347.0	348.5	348.3	350.0	347.8	355.5	357.1	358.6
4450983.786	647.4	343.12	0.000001611	42.40	355.42	297.58	343.1	344.6	344.3	346.1	346.0	346.7	346.4	347.9	347.1	348.6	348.3	350.0	347.8	355.4	357.1	358.6
4450993.786	647.9	343.17	0.000001611	42.39	355.44	297.58	343.2	344.5	344.3	346.3	346.0	346.7	346.4	348.0	347.1	348.7	348.4	349.9	347.9	355.4	357.1	358.6
4451003.787	646.9	343.21	0.000001611	42.43	355.65	297.58	343.2	344.6	344.4	346.3	346.1	346.7	346.4	348.0	347.1	348.7	348.5	350.1	347.9	355.6	357.3	358.6
4451013.837	647.9	343.25	0.000001611	42.40	355.47	297.59	343.2	344.5	344.4	346.3	346.1	346.8	346.5	348.1	347.1	348.8	348.4	350.0	348.0	355.5	357.2	358.7
4451023.838	648.8	343.28	0.000001611	42.29	355.57	297.59	343.3	344.8	344.4	346.5	346.2	346.8	346.5	348.1	347.2	348.7	348.5	350.0	348.0	355.6	357.2	358.7
4451033.838	648.8	343.33	0.000001610	42.34	355.61	297.60	343.3	344.7	344.5	346.4	346.2	346.9	346.6	348.1	347.3	348.8	348.5	350.1	348.0	355.6	357.3	358.7
4451043.789	650.1	343.37	0.000001610	42.59	355.53	297.61	343.4	344.6	344.5	346.5	346.2	347.0	346.6	348.2	347.2	348.8	348.6	350.2	348.0	355.5	357.3	358.8
4451053.789	654.0	343.40	0.000001610	42.59	355.62	297.62	343.4	344.7	344.6	346.5	346.2	346.9	346.6	348.1	347.3	348.9	348.6	350.3	348.1	355.6	357.4	358.8
4451063.789	655.7	343.44	0.000001610	42.57	355.76	297.63	343.4	344.8	344.6	346.5	346.3	347.0	346.7	348.3	347.4	348.9	348.6	350.1	348.1	355.8	357.5	358.9
4451073.840	655.3	343.49	0.000001610	42.63	355.78	297.64	343.5	344.8	344.6	346.5	346.4	347.0	346.7	348.3	347.4	349.0	348.7	350.4	348.2	355.8	357.5	358.9
4451083.840	655.4	343.54	0.000001610	42.64	355.74	297.65	343.5	344.9	344.7	346.7	346.4	347.1	346.8	348.4	347.4	349.0	348.8	350.3	348.2	355.7	357.5	359.0
4451093.841	656.4	343.59	0.000001610	42.56	355.91	297.67	343.6	345.0	344.7	346.6	346.5	347.1	346.8	348.4	347.5	349.0	348.8	350.3	348.3	355.9	357.6	359.1
4451103.791	656.2	343.63	0.000001610	42.67	355.90	297.68	343.6	344.9	344.8	346.7	346.5	347.2	346.8	348.4	347.5	349.1	348.8	350.4	348.3	355.9	357.6	359.1
4451113.792	658.2	343.66	0.000001610	42.50	355.98	297.69	343.7	345.0	344.8	346.8	346.5	347.2	346.9	348.5	347.6	349.1	348.9	350.5	348.4	356.0	357.7	359.2
4451123.842	659.4	343.70	0.000001610	42.63	355.94	297.70	343.7	345.1	344.8	346.9	346.5	347.2	346.9	348.5	347.6	349.2	348.9	350.4	348.4	355.9	357.7	359.2
4451133.792	660.2	343.75	0.000001610	42.63	356.07	297.72	343.8	345.2	344.9	346.9	346.6	347.3	347.0	348.6	347.6	349.2	349.0	350.7	348.4	356.1	357.8	359.3
4451143.843	660.7	343.77	0.000001609	42.84	356.08	297.73	343.8	345.1	344.9	346.9	346.7	347.3	347.0	348.5	347.7	349.2	349.0	350.7	348.5	356.1	357.9	359.3
4451153.843	661.6	343.83	0.000001609	42.91	356.27	297.74	343.8	345.2	344.9	347.0	346.7	347.3	347.0	348.7	347.7	349.3	349.0	350.8	348.5	356.3	357.8	359.3
4451163.844	661.8	343.87	0.000001609	42.77	356.23	297.74	343.9	345.3	345.0	346.9	346.7	347.4	347.1	348.7	347.7	349.3	349.1	350.5	348.6	356.2	357.9	359.3
4451173.794	662.6	343.91	0.000001609	42.67	356.16	297.75	343.9	345.3	345.1	347.0	346.8	347.5	347.1	348.7	347.8	349.4	349.1	350.7	348.6	356.2	357.9	359.3
4451183.845	661.5	343.93	0.000001609	42.66	356.25	297.76	343.9	345.2	345.1	347.0	346.8	347.5	347.2	348.8	347.9	349.4	349.1	350.8	348.6	356.3	358.0	359.3
4451193.845	661.7	343.96	0.000001609	42.76	356.26	297.76	344.0	345.3	345.1	347.2	346.8	347.5	347.2	348.8	347.9	349.4	349.1	351.0	348.7	356.3	358.0	359.4
4451203.845	662.9	344.00	0.000001609	42.85	356.40	297.77	344.0	345.3	345.2	347.1	346.9	347.5	347.2	348.8	347.9	349.5	349.2	350.9	348.7	356.4	357.9	359.5
4451213.846	664.8	344.06	0.000001609	42.99	356.33	297.77	344.1	345.3	345.2	347.2	346.9	347.6	347.3	348.8	347.9	349.6	349.3	351.0	348.8	356.3	358.1	359.5
4451223.846	665.0	344.09	0.000001609	42.98	356.46	297.78	344.1	345.5	345.2	347.2	346.9	347.6	347.3	348.9	348.0	349.5	349.2	351.0	348.8	356.5	358.1	359.6
4451233.797	664.8	344.15	0.000001609	42.95	356.50	297.78	344.1	345.4	345.3	347.2	347.0	347.6	347.3	348.9	348.0	349.6	349.3	351.0	348.8	356.5	358.2	359.6
4451243.797	665.6	344.18	0.000001609	42.91	356.55	297.79	344.2	345.5	345.3	347.3	347.0	347.7	347.3	349.0	348.1	349.6	349.3	350.9	348.9	356.5	358.2	359.7
4451253.798	664.8	344.22	0.000001608	42.85	356.52	297.79	344.2	345.7	345.3	347.3	347.1	347.7	347.4	349.0	348.1	349.6	349.4	351.2	348.9	356.5	358.3	359.8
4451263.798	665.3	344.25	0.000001608	42.90	356.63	297.80	344.3	345.5	345.4	347.3	347.2	347.8	347.5	349.0	348.1	349.6	349.4	351.1	348.9	356.6	358.3	359.8
4451273.798	664.1	344.29	0.000001608	42.69	356.69	297.81	344.3	345.7	345.4	347.3	347.2	347.8	347.5	349.1	348.2	349.8	349.5	351.0	349.0	356.7	358.3	359.8
4451283.849	662.8	344.32	0.000001608	42.88	356.74	297.82	344.3	345.6	345.5	347.5	347.2	347.9	347.6	349.2	348.2	349.8	349.6	351.2	349.0	356.7	358.4	359.9
4451293.799	662.7	344.36	0.000001608	42.71	356.69	297.83	344.4	345.9	345.5	347.5	347.3	347.9	347.6	349.1	348.3	349.8	349.6	351.2	349.1	356.7	358.4	359.9
4451303.850	661.8	344.38	0.000001608	42.87	356.66	297.84	344.4	345.5	345.5	347.6	347.3	347.9	347.6	349.2	348.3	349.8	349.6	351.4	349.1	356.7	358.4	359.9
4451313.850	661.9	344.42	0.000001608	42.91	356.77	297.85	344.4	346.0	345.6	347.5	347.3	348.0	347.7	349.3	348.3	350.0	349.6	351.4	349.1	356.8	358.5	359.9
4451323.851	661.5	344.46	0.000001608	42.36	356.84	297.87	344.5	345.7	345.6	347.7	347.4	348.0	347.7	349.3	348.4	349.9	349.7	351.3	349.2	356.8	358.5	360.0
4451333.851	660.1	344.51	0.000001608	43.12	356.88	297.89	344.5	345.9	345.7	347.6	347.4	348.0	347.8	349.3	348.4	349.9	349.8	351.3	349.2	356.9	358.5	360.0
4451343.851	658.4	344.55	0.000001607	43.13	356.83	297.90	344.6	345.9	345.7	347.7	347.4	348.1	347.8	349.3	348.4	349.9	349.8	351.4	349.3	356.8	358.6	360.0
4451353.852	657.3	344.59	0.000001607	43.06	356.98	297.92	344.6	345.9	345.7	347.7	347.5	348.1	347.8	349.5	348.5	350.1	349.8	351.5	349.3	357.0	358.6	360.0
4451363.852	656.5	344.61	0.000001607	43.18	356.90	297.94	344.6	346.2	345.8	347.7	347.5	348.2	347.8	349.5	348.5	350.0	349.8	351.4	349.3	356.9	358.5	360.0
4451373.853	655.7	344.68	0.000001607	43.19	357.10	297.95	344.7	346.0	345.8	347.8	347.6	348.2	347.9	349.5	348.6	350.1	349.9	351.7	349.4	357.1	358.7	360.1
4451383.803	655.7	344.71	0.000001607	43.15	357.19	297.97	344.7	346.1	345.9	348.0	347.6	348.2	347.9	349.5	348.6	350.2	349.8	351.5	349.4	357.2	358.7	360.1
4451393.854	655.4	344.74	0.000001607	43.08	357.12	297.99	344.7	346.2	345.9	347.8	347.7	348.3	348.0	349.6	348.7	350.2	349.9	351.5	349.5	357.1	358.7	360.2
4451403.854	653.6	344.77	0.000001607	43.05	357.18	298.00	344.8	346.2	345.9	348.0	347.7	348.3	348.0	349.6	348.7	350.3	350.0	351.7	349.5	357.2	358.8	360.3
4451413.804	653.2	344.83	0.000001607	43.09	357.13	298.02	344.8	346.3	346.0	347.9	347.8	348.4	348.1	349.7	348.7	350.3	350.1	351.9	349.5	357.1	358.8	360.3
4451423.855	650.5	344.87	0.000001607	43.13	357.35	298.03	344.9	346.3	346.0	348.1	347.8	348.5	348.2	349.8	348.8	350.3	350.1	351.9	349.6	357.3	358.8	360.3
4451433.805	649.8	344.89	0.000001607	43.09	357.16	298.04	344.9	346.3	346.0	348.1	347.8	348.4	348.1	349.7	348.8	350.5	350.1	351.7	349.6	357.2	358.9	360.3
4451443.856	649.2	344.94	0.000001607	43.03	357.40	298.05	344.9	346.3	346.1	348.1	347.9	348.5	348.2	349.8	348.8	350.4	350.1	352.0	349.7	357.4	358.9	360.4
4451453.806	648.5	344.98	0.000001607	42.91	357.44	298.06	345.0	346.4	346.1	348.1	347.9	348.5	348.2	349.8	348.8	350.4	350.1	351.9	349.7	357.4	359.0	360.5
4451463.807	647.9	345.01	0.000001606	42.98	357.51	298.06	345.0	346.3	346.2	348.2	348.0	348.6	348.2	349.8	348.9	350.5	350.2	351.9	349.8	357.5	359.0	360.4
4451473.807	647.3	345.06	0.000001606	42.95	357.63	298.07	345.1	346.3	346.2	348.2	348.0	348.6	348.3	349.9	349.0	350.5	350.2	352.1	349.8	357.6	359.0	360.5
4451483.807	646.8	345.09	0.000001606	42.85	357.51	298.07	345.1	346.4	346.2	348.3	348.0	348.6	348.3	349.9	349.0	350.5	350.2	352.1	349.8	357.5	359.0	360.5
4451493.808	646.0	345.13	0.000001606	42.82	357.55	298.06	345.1	346.4	346.3	348.3	348.0	348.7	348.4	349.9	349.0	350.6	350.3	352.1	349.9	357.5	359.0	360.6
4451503.858	644.6	345.17	0.000001606	42.82	357.66	298.06	345.2	346.5	346.3	348.3	348.1	348.7	348.4	350.0	349.0	350.6	350.4	351.9	349.9	357.7	359.1	360.5
4451513.809	645.6	345.20	0.000001606	42.71	357.59	298.06	345.2	346.5	346.3	348.3	348.1	348.7	348.4	350.0	349.0	350.6	350.4	352.2	349.9	357.6	359.1	360.6
4451523.809	645.6	345.25	0.000001606	42.74	357.55	298.05	345.2	346.7	346.4	348.5	348.1	348.8	348.4	350.0	349.1	350.7	350.4	352.3	350.0	357.6	359.1	360.6
4451533.860	645.1	345.31	0.000001606	42.60	357.75	298.04	345.3	346.7	346.4	348.5	348.2	348.8	348.5	350.1	349.2	350.8	350.5	352.2	350.0	357.8	359.2	360.6
4451543.810	644.4	345.36	0.000001606	42.60	357.72	298.03	345.4	346.7	346.5	348.4	348.2	348.8	348.6	350.1	349.2	350.8	350.5	352.2	350.1	357.7	359.2	360.7
4451553.860	644.7	345.39	0.000001606	42.70	357.81	298.02	345.4	346.7	346.5	348.5	348.3	348.9	348.6	350.2	349.2	350.8	350.5	352.3	350.1	357.8	359.3	360.7
4451563.811	644.7	345.43	0.000001605	42.39	357.83	298.01	345.4	346.7	346.5	348.5	348.2	348.9	348.6	350.1	349.3	350.8	350.6	352.4	350.1	357.8	359.4	360.8
4451573.861	645.2	345.46	0.000001605	42.71	357.90	298.00	345.5	346.8	346.6	348.6	348.3	349.0	348.6	350.2	349.3	350.8	350.6	352.2	350.2	357.9	359.4	360.9
4451583.862	646.7	345.49	0.000001605	42.94	357.85	297.99	345.5	346.9	346.6	348.7	348.4	349.0	348.6	350.2	349.3	350.9	350.6	352.2	350.2	357.8	359.5	361.0
4451593.862	647.8	345.53	0.000001605	42.88	357.89	297.97	345.5	346.9	346.6	348.6	348.4	349.0	348.7	350.2	349.4	350.9	350.6	352.3	350.2	357.9	359.4	361.1
4451603.863	647.2	345.56	0.000001605	42.95	358.03	297.96	345.6	346.9	346.7	348.6	348.5	349.1	348.8	350.4	349.4	351.0	350.7	352.4	350.3	358.0	359.5	361.1
4451613.813	648.9	345.61	0.000001605	42.91	357.97	297.95	345.6	347.1	346.7	348.7	348.4	349.0	348.7	350.4	349.4	351.0	350.7	352.4	350.3	358.0	359.6	361.1
4451623.863	649.5	345.65	0.000001605	42.85	358.15	297.94	345.6	347.0	346.8	348.7	348.5	349.1	348.8	350.4	349.5	351.1	350.7	352.6	350.4	358.2	359.7	361.2
4451633.864	648.5	345.71	0.000001605	42.74	358.06	297.93	345.7	347.2	346.8	348.8	348.5	349.1	348.9	350.5	349.5	351.1	350.8	352.5	350.4	358.1	359.6	361.2
4451643.814	648.4	345.76	0.000001605	42.74	358.17	297.92	345.8	347.1	346.8	348.8	348.6	349.2	348.9	350.4	349.6	351.1	350.9	352.6	350.4	358.2	359.7	361.2
4451653.865	648.1	345.81	0.000001605	29.68	358.25	297.91	345.8	347.1	346.9	348.9	348.6	349.2	348.9	350.5	349.6	351.2	350.9	352.8	350.5	358.2	359.8	361.4
4451663.815	648.3	345.85	0.000001604	42.32	358.36	297.91	345.9	347.3	346.9	349.0	348.7	349.2	349.0	350.6	349.6	351.1	350.9	352.8	350.5	358.4	360.0	361.5
4451673.866	649.3	345.89	0.000001604	41.90	358.36	297.90	345.9	347.3	347.0	349.0	348.7	349.3	349.0	350.6	349.7	351.3	351.0	352.6	350.5	358.4	360.0	361.4
4451683.866	648.3	345.94	0.000001604	34.22	358.37	297.89	345.9	347.2	347.0	349.0	348.8	349.3	349.1	350.7	349.8	351.3	351.0	352.7	350.6	358.4	360.3	361.7
4451693.866	650.1	345.98	0.000001604	42.75	358.56	297.88	346.0	347.3	347.0	349.1	348.8	349.3	349.1	350.7	349.8	351.3	351.1	352.9	350.6	358.6	360.8	362.0
4451703.867	649.5	346.01	0.000001604	42.70	358.63	297.88	346.0	347.4	347.1	349.1	348.9	349.4	349.2	350.8	349.8	351.5	351.2	352.8	350.7	358.6	360.4	361.6
4451713.817	649.6	346.02	0.000001604	42.38	358.60	297.87	346.0	347.4	347.2	349.2	348.9	349.5	349.3	350.8	349.9	351.5	351.2	353.0	350.7	358.6	360.1	361.5
4451723.818	650.6	346.07	0.000001604	42.49	358.56	297.87	346.1	347.4	347.2	349.2	348.9	349.5	349.3	350.8	349.9	351.5	351.2	352.8	350.8	358.6	359.9	361.5
4451733.868	651.6	346.09	0.000001604	42.60	358.67	297.86	346.1	347.5	347.2	349.2	348.9	349.5	349.3	350.8	349.9	351.5	351.2	352.9	350.8	358.7	359.9	361.5
4451743.869	652.7	346.12	0.000001604	42.43	358.67	297.86	346.1	347.6	347.2	349.2	349.0	349.5	349.3	350.8	349.9	351.5	351.2	352.8	350.8	358.7	359.9	361.5
4451753.869	652.4	346.16	0.000001604	42.45	358.80	297.86	346.2	347.6	347.3	349.2	349.0	349.5	349.3	350.9	350.0	351.5	351.2	352.9	350.8	358.8	359.9	361.6
4451763.819	653.7	346.22	0.000001604	42.53	358.82	297.86	346.2	347.5	347.3	349.3	349.0	349.6	349.4	350.9	350.0	351.5	351.2	353.0	350.9	358.8	359.9	361.6
4451773.820	653.4	346.25	0.000001604	42.36	358.77	297.86	346.2	347.6	347.3	349.3	349.0	349.6	349.4	350.9	350.0	351.6	351.2	353.0	350.9	358.8	360.3	361.9
4451783.870	652.7	346.28	0.000001603	42.35	358.88	297.86	346.3	347.7	347.4	349.5	349.0	349.6	349.4	351.0	350.0	351.6	351.2	353.0	350.9	358.9	360.1	361.7
4451793.871	653.8	346.31	0.000001603	42.07	358.82	297.86	346.3	347.6	347.4	349.4	349.1	349.7	349.4	351.0	350.1	351.7	351.3	353.0	350.9	358.8	360.1	361.6
4451803.871	654.5	346.35	0.000001603	42.36	358.82	297.86	346.4	347.7	347.4	349.4	349.2	349.7	349.5	351.0	350.1	351.6	351.3	353.1	351.0	358.8	360.1	361.7
4451813.872	653.3	346.40	0.000001603	41.90	358.93	297.87	346.4	347.7	347.5	349.5	349.2	349.7	349.5	351.0	350.1	351.6	351.4	353.0	351.0	358.9	360.0	361.7
4451823.822	653.6	346.44	0.000001603	42.80	358.87	297.88	346.4	347.8	347.5	349.5	349.3	349.8	349.6	351.1	350.2	351.6	351.4	353.4	351.1	358.9	360.1	361.7
4451833.872	652.1	346.47	0.000001603	42.96	358.91	297.88	346.5	347.8	347.5	349.5	349.3	349.8	349.6	351.1	350.2	351.7	351.4	353.2	351.1	358.9	360.3	361.7
4451843.823	655.3	346.51	0.000001603	42.96	358.84	297.89	346.5	347.9	347.6	349.6	349.3	349.9	349.6	351.1	350.2	351.8	351.4	353.2	351.1	358.8	360.4	361.8
4451853.873	656.4	346.53	0.000001603	42.79	358.94	297.91	346.5	347.9	347.6	349.6	349.4	349.9	349.7	351.2	350.2	351.8	351.5	353.2	351.1	358.9	360.6	361.8
4451863.874	656.3	346.56	0.000001603	42.95	359.05	297.92	346.6	347.9	347.6	349.7	349.4	350.0	349.7	351.2	350.3	351.8	351.5	353.1	351.2	359.1	360.5	361.9
4451873.824	656.0	346.59	0.000001603	43.06	359.15	297.93	346.6	348.0	347.7	349.8	349.4	350.0	349.8	351.3	350.3	351.9	351.6	353.2	351.2	359.1	360.5	362.0
4451883.875	656.5	346.63	0.000001603	42.84	359.09	297.95	346.6	348.2	347.7	349.9	349.5	350.1	349.8	351.3	350.4	351.9	351.7	353.5	351.3	359.1	360.5	362.0
4451893.875	656.1	346.66	0.000001603	42.80	359.04	297.96	346.7	348.0	347.8	349.8	349.5	350.1	349.8	351.3	350.5	352.0	351.7	353.5	351.3	359.0	360.6	362.0
4451903.875	657.6	346.69	0.000001603	43.30	359.22	297.98	346.7	348.0	347.8	349.8	349.5	350.1	349.9	351.5	350.5	352.0	351.7	353.6	351.4	359.2	360.7	362.1
4451913.876	659.2	346.72	0.000001602	43.36	359.16	298.00	346.7	348.2	347.8	349.8	349.6	350.2	349.9	351.5	350.5	352.0	351.8	353.6	351.4	359.2	360.7	362.2
4451923.876	657.9	346.76	0.000001602	43.34	359.23	298.01	346.8	348.2	347.9	349.9	349.6	350.2	350.0	351.4	350.5	352.0	351.8	353.7	351.4	359.2	360.8	362.2
4451933.877	656.8	346.79	0.000001602	43.30	359.32	298.03	346.8	348.3	347.9	349.9	349.7	350.3	350.0	351.5	350.6	352.2	351.9	353.8	351.5	359.3	360.7	362.2
4451943.827	655.6	346.82	0.000001602	43.18	359.39	298.04	346.8	348.2	347.9	350.0	349.7	350.3	350.1	351.6	350.6	352.2	351.9	353.6	351.5	359.4	360.8	362.2
4451953.878	654.7	346.88	0.000001602	43.32	359.48	298.05	346.9	348.2	348.0	350.1	349.8	350.3	350.1	351.6	350.7	352.2	351.9	353.7	351.6	359.5	360.8	362.2
4451963.828	654.2	346.92	0.000001602	43.21	359.36	298.07	346.9	348.5	348.0	350.0	349.8	350.3	350.1	351.6	350.7	352.3	352.0	353.8	351.6	359.4	360.8	362.3
4451973.878	652.1	346.96	0.000001602	43.05	359.43	298.08	347.0	348.4	348.1	350.1	349.8	350.4	350.1	351.7	350.7	352.3	352.0	353.8	351.7	359.4	360.8	362.3
4451983.879	652.6	346.98	0.000001602	43.13	359.58	298.09	347.0	348.4	348.1	350.2	349.9	350.5	350.2	351.8	350.8	352.3	352.0	353.8	351.7	359.6	360.9	362.3
4451993.829	652.2	347.02	0.000001602	43.09	359.46	298.10	347.0	348.4	348.1	350.1	349.9	350.5	350.2	351.7	350.8	352.3	352.1	353.8	351.7	359.5	361.0	362.4
4452003.830	651.4	347.06	0.000001602	43.11	359.52	298.11	347.1	348.5	348.2	350.2	349.9	350.5	350.3	351.8	350.8	352.4	352.1	353.9	351.8	359.5	361.0	362.4
4452013.830	650.4	347.11	0.000001601	43.10	359.51	298.11	347.1	348.5	348.2	350.1	350.0	350.5	350.3	351.8	350.9	352.5	352.1	353.9	351.8	359.5	361.0	362.4
4452023.881	650.3	347.13	0.000001601	43.09	359.65	298.12	347.1	348.5	348.2	350.3	350.1	350.6	350.3	351.8	350.9	352.5	352.2	353.9	351.8	359.6	361.1	362.4
4452033.831	650.2	347.17	0.000001601	43.10	359.56	298.12	347.2	348.6	348.3	350.4	350.1	350.6	350.4	351.9	351.0	352.5	352.2	354.0	351.9	359.6	361.1	362.4
4452043.881	649.1	347.21	0.000001601	43.03	359.67	298.13	347.2	348.7	348.3	350.4	350.0	350.6	350.4	351.9	351.0	352.5	352.2	354.3	351.9	359.7	361.1	362.4
4452053.882	649.8	347.26	0.000001601	42.98	359.82	298.13	347.3	348.5	348.4	350.4	350.1	350.7	350.4	351.9	351.0	352.5	352.3	354.2	351.9	359.8	361.1	362.5
4452063.882	648.8	347.28	0.000001601	43.05	359.70	298.14	347.3	348.5	348.4	350.5	350.2	350.7	350.5	352.0	351.0	352.5	352.3	354.1	352.0	359.7	361.1	362.5
4452073.833	650.2	347.33	0.000001601	43.14	359.73	298.14	347.3	348.7	348.4	350.5	350.1	350.7	350.5	352.0	351.1	352.6	352.3	354.3	352.0	359.7	361.2	362.6
4452083.833	648.9	347.37	0.000001601	42.99	359.78	298.14	347.4	348.7	348.5	350.6	350.2	350.8	350.5	352.1	351.1	352.7	352.4	354.3	352.0	359.8	361.2	362.6
4452093.883	648.1	347.40	0.000001601	42.98	359.77	298.15	347.4	348.8	348.5	350.6	350.2	350.9	350.6	352.1	351.1	352.7	352.4	354.3	352.1	359.8	361.2	362.6
4452103.884	647.8	347.44	0.000001601	43.03	359.90	298.15	347.4	348.8	348.6	350.6	350.3	350.9	350.6	352.2	351.2	352.8	352.5	354.1	351.9	359.9	361.2	362.6
4452113.884	648.6	347.48	0.000001601	42.96	359.80	298.15	347.5	349.0	348.6	350.5	350.4	351.0	350.6	352.2	351.2	352.8	352.5	354.3	352.1	359.8	361.3	362.7
4452123.885	649.0	347.51	0.000001600	43.05	359.87	298.15	347.5	348.9	348.6	350.6	350.4	351.0	350.7	352.2	351.3	352.7	352.5	354.3	352.2	359.9	361.3	362.7
4452133.835	650.9	347.54	0.000001600	43.17	359.94	298.15	347.5	349.0	348.7	350.6	350.4	351.0	350.7	352.2	351.3	352.9	352.6	354.4	352.2	359.9	361.4	362.8
4452143.836	650.7	347.58	0.000001600	43.02	359.99	298.14	347.6	348.8	348.7	350.7	350.4	351.1	350.8	352.2	351.4	352.9	352.6	354.5	352.2	360.0	361.3	362.8
4452153.886	652.6	347.62	0.000001600	43.16	359.92	298.14	347.6	349.0	348.7	350.8	350.5	351.1	350.8	352.3	351.3	352.9	352.7	354.2	352.3	359.9	361.4	362.8
4452163.836	652.8	347.63	0.000001600	43.27	360.10	298.14	347.6	349.0	348.8	350.8	350.5	351.1	350.9	352.4	351.4	353.0	352.7	354.5	352.3	360.1	361.5	362.8
4452173.887	652.8	347.68	0.000001600	43.23	359.89	298.14	347.7	349.1	348.8	350.9	350.5	351.2	350.9	352.4	351.5	353.0	352.7	354.8	352.3	359.9	361.5	362.9
4452183.887	653.1	347.72	0.000001600	43.13	360.08	298.13	347.7	349.1	348.8	350.8	350.6	351.2	350.9	352.5	351.5	353.1	352.7	354.5	352.4	360.1	361.6	362.9
4452193.888	654.5	347.76	0.000001600	43.12	360.14	298.13	347.8	349.1	348.9	350.9	350.6	351.2	351.0	352.5	351.5	353.1	352.8	354.8	352.4	360.1	361.7	363.0
4452203.888	653.9	347.77	0.000001600	43.08	360.26	298.12	347.8	349.2	348.9	350.9	350.6	351.2	351.0	352.5	351.5	353.1	352.9	354.6	352.4	360.3	361.7	363.0
4452213.839	653.0	347.83	0.000001600	43.19	360.10	298.12	347.8	349.2	348.9	351.1	350.7	351.3	351.0	352.6	351.6	353.2	352.9	354.9	352.5	360.1	361.7	363.0
4452223.889	652.6	347.85	0.000001600	43.16	360.21	298.11	347.9	349.2	349.0	351.0	350.8	351.3	351.1	352.5	351.6	353.2	352.9	354.6	352.5	360.2	361.8	363.1
4452233.889	653.9	347.89	0.000001600	43.05	360.38	298.11	347.9	349.4	349.0	350.9	350.8	351.3	351.1	352.6	351.6	353.2	352.9	354.6	352.5	360.4	361.8	363.1
4452243.840	652.9	347.92	0.000001600	43.01	360.23	298.10	347.9	349.3	349.0	351.0	350.8	351.4	351.1	352.6	351.6	353.3	353.0	354.9	352.6	360.2	361.8	363.1
4452253.890	652.6	347.97	0.000001599	42.98	360.27	298.10	348.0	349.3	349.1	351.2	350.8	351.4	351.1	352.7	351.7	353.3	353.0	354.9	352.6	360.3	361.9	363.2
4452263.891	650.5	348.00	0.000001599	42.84	360.41	298.09	348.0	349.3	349.1	351.0	350.9	351.5	351.2	352.8	351.8	353.3	353.0	354.9	352.7	360.4	361.8	363.2
4452273.891	649.7	348.03	0.000001599	42.81	360.37	298.08	348.0	349.4	349.1	351.2	350.9	351.5	351.2	352.8	351.8	353.3	353.1	355.2	352.7	360.4	361.9	363.3
4452283.892	646.4	348.06	0.000001599	42.74	360.34	298.08	348.1	349.4	349.2	351.2	351.0	351.5	351.3	352.8	351.8	353.4	353.1	355.1	352.7	360.3	361.9	363.2
4452293.892	649.1	348.08	0.000001599	42.91	360.43	298.07	348.1	349.4	349.2	351.2	351.0	351.5	351.3	352.8	351.8	353.5	353.1	354.9	352.7	360.4	361.8	363.2
4452303.892	648.6	348.12	0.000001599	42.74	360.46	298.07	348.1	349.5	349.2	351.2	351.0	351.5	351.3	352.8	351.9	353.5	353.2	355.1	352.8	360.5	361.8	363.3
4452313.843	648.6	348.15	0.000001599	42.81	360.63	298.07	348.2	349.4	349.3	351.2	351.0	351.6	351.3	352.8	351.9	353.4	353.2	355.2	352.8	360.6	361.9	363.3
4452323.893	647.8	348.19	0.000001599	42.74	360.55	298.07	348.2	349.5	349.3	351.3	351.1	351.6	351.4	352.9	351.9	353.5	353.2	355.1	352.8	360.5	362.0	363.3
4452333.894	646.4	348.21	0.000001599	42.69	360.56	298.07	348.2	349.6	349.3	351.3	351.1	351.7	351.4	352.9	351.9	353.5	353.2	354.9	352.8	360.6	361.9	363.4
4452343.894	645.2	348.26	0.000001599	42.69	360.60	298.07	348.3	349.7	349.4	351.4	351.1	351.7	351.4	353.0	352.0	353.6	353.3	355.1	352.9	360.6	362.0	363.4
4452353.895	645.3	348.31	0.000001599	42.71	360.55	298.07	348.3	349.6	349.4	351.5	351.2	351.8	351.5	353.0	352.0	353.5	353.3	355.2	352.9	360.6	362.0	363.4
4452363.895	645.4	348.34	0.000001598	42.90	360.57	298.08	348.3	349.7	349.4	351.3	351.2	351.8	351.5	353.0	352.1	353.6	353.3	355.0	352.9	360.6	362.0	363.4
4452373.895	647.3	348.38	0.000001598	42.74	360.74	298.09	348.4	349.7	349.5	351.5	351.2	351.9	351.5	353.0	352.1	353.7	353.4	355.4	353.0	360.7	362.1	363.5
4452383.896	647.3	348.44	0.000001598	42.81	360.71	298.10	348.4	349.8	349.5	351.6	351.3	351.9	351.6	353.1	352.2	353.8	353.5	355.2	353.0	360.7	362.2	363.6
4452393.846	646.9	348.47	0.000001598	42.78	360.69	298.11	348.5	349.9	349.6	351.6	351.3	351.9	351.6	353.1	352.2	353.8	353.5	355.4	353.0	360.7	362.3	363.6
4452403.897	646.1	348.50	0.000001598	42.77	360.81	298.13	348.5	349.9	349.6	351.5	351.3	351.9	351.7	353.2	352.2	353.8	353.4	355.4	353.1	360.8	362.3	363.6
4452413.847	645.0	348.52	0.000001598	42.70	360.86	298.14	348.5	349.8	349.6	351.7	351.3	352.0	351.7	353.2	352.3	353.8	353.5	355.2	353.1	360.9	362.3	363.7
4452423.848	646.5	348.57	0.000001598	42.73	360.82	298.16	348.6	349.9	349.7	351.7	351.4	352.0	351.8	353.3	352.3	353.8	353.6	355.6	353.2	360.8	362.3	363.7
4452433.898	647.4	348.60	0.000001598	42.84	360.95	298.17	348.6	350.0	349.7	351.7	351.4	352.0	351.8	353.3	352.3	353.9	353.6	355.5	353.2	360.9	362.5	363.7
4452443.848	647.3	348.63	0.000001598	42.73	360.85	298.19	348.6	350.0	349.7	351.7	351.5	352.0	351.8	353.3	352.4	353.9	353.6	355.4	353.3	360.9	362.5	363.7
4452453.899	647.7	348.66	0.000001598	42.87	360.93	298.20	348.7	350.0	349.8	351.8	351.6	352.2	351.8	353.3	352.4	353.9	353.7	355.6	353.3	360.9	362.5	363.8
4452463.899	646.1	348.71	0.000001598	42.81	361.05	298.22	348.7	350.1	349.8	351.8	351.6	352.2	351.9	353.4	352.4	354.0	353.8	355.7	353.3	361.0	362.5	363.8
4452473.850	646.5	348.74	0.000001598	42.74	360.92	298.23	348.7	350.1	349.8	351.9	351.6	352.2	351.9	353.4	352.4	354.0	353.8	355.6	353.4	360.9	362.6	363.9
4452483.850	645.7	348.76	0.000001598	42.67	361.12	298.25	348.8	350.1	349.9	351.9	351.6	352.2	351.9	353.4	352.5	354.0	353.8	355.6	353.4	361.1	362.7	363.9
4452493.901	645.1	348.83	0.000001597	42.63	361.14	298.26	348.8	350.2	349.9	351.9	351.7	352.3	351.9	353.5	352.5	354.1	353.8	355.8	353.4	361.1	362.6	363.9
4452503.901	645.0	348.87	0.000001597	42.81	361.16	298.27	348.9	350.2	349.9	352.0	351.7	352.3	352.0	353.5	352.6	354.2	353.8	355.9	353.5	361.2	362.6	364.0
4452513.851	646.0	348.90	0.000001597	42.80	361.24	298.28	348.9	350.3	350.0	352.1	351.7	352.3	352.1	353.5	352.6	354.1	353.9	355.7	353.5	361.2	362.7	364.0
4452523.902	646.4	348.95	0.000001597	42.76	361.09	298.29	348.9	350.3	350.0	352.0	351.8	352.4	352.1	353.6	352.6	354.2	353.9	355.7	353.5	361.1	362.8	364.1
4452533.902	645.4	348.98	0.000001597	42.70	361.36	298.29	349.0	350.2	350.0	352.2	351.8	352.4	352.1	353.7	352.7	354.3	353.9	355.7	353.6	361.4	362.8	364.1
4452543.903	646.3	349.01	0.000001597	42.78	361.26	298.30	349.0	350.3	350.1	352.1	351.8	352.4	352.1	353.6	352.7	354.2	354.0	355.9	353.6	361.3	362.8	364.2
4452553.903	647.0	349.06	0.000001597	42.85	361.26	298.30	349.1	350.4	350.1	352.2	351.9	352.5	352.2	353.8	352.7	354.3	354.0	356.2	353.6	361.3	362.8	364.2
4452563.904	647.3	349.09	0.000001597	42.74	361.31	298.31	349.1	350.5	350.1	352.2	351.9	352.5	352.2	353.7	352.8	354.3	354.1	356.0	353.7	361.3	362.9	364.3
4452573.904	647.9	349.13	0.000001597	42.84	361.48	298.31	349.1	350.5	350.2	352.2	351.9	352.5	352.2	353.8	352.8	354.4	354.1	355.9	353.7	361.5	362.9	364.3
4452583.904	648.0	349.15	0.000001596	42.65	361.50	298.31	349.2	350.6	350.2	352.2	352.0	352.6	352.3	353.8	352.8	354.4	354.1	356.2	353.7	361.5	363.0	364.4
4452593.905	646.5	349.18	0.000001596	42.71	361.43	298.30	349.2	350.5	350.2	352.2	352.0	352.6	352.3	353.9	352.9	354.4	354.1	355.9	353.8	361.4	363.0	364.4
4452603.905	646.1	349.22	0.000001596	42.53	361.55	298.30	349.2	350.5	350.3	352.2	352.1	352.6	352.4	354.0	352.9	354.5	354.2	356.2	353.8	361.6	363.1	364.5
4452613.906	646.4	349.27	0.000001596	42.65	361.66	298.30	349.3	350.6	350.3	352.3	352.1	352.7	352.4	353.9	353.0	354.5	354.2	356.3	353.9	361.7	363.1	364.4
4452623.856	647.7	349.30	0.000001596	42.48	361.72	298.29	349.3	350.7	350.4	352.4	352.1	352.7	352.4	354.0	353.0	354.5	354.3	356.1	353.9	361.7	363.1	364.4
4452633.907	644.8	349.33	0.000001596	42.58	361.65	298.29	349.3	350.8	350.4	352.4	352.2	352.8	352.5	354.0	353.0	354.6	354.3	356.3	353.9	361.7	363.2	364.5
4452643.907	645.0	349.36	0.000001596	42.27	361.64	298.29	349.4	350.7	350.4	352.4	352.2	352.7	352.5	354.0	353.0	354.7	354.3	356.0	354.0	361.6	363.2	364.6
4452653.907	644.4	349.39	0.000001596	42.42	361.76	298.29	349.4	350.7	350.5	352.4	352.2	352.8	352.6	354.0	353.1	354.7	354.4	356.2	354.0	361.8	363.2	364.6
4452663.858	645.8	349.41	0.000001596	42.37	361.60	298.29	349.4	350.9	350.5	352.5	352.2	352.9	352.6	354.1	353.1	354.6	354.4	356.4	354.0	361.6	363.2	364.6
4452673.858	645.8	349.45	0.000001596	42.42	361.82	298.28	349.5	350.8	350.5	352.6	352.3	352.8	352.6	354.1	353.1	354.7	354.5	356.4	354.1	361.8	363.2	364.6
4452683.909	645.2	349.48	0.000001596	42.33	361.86	298.29	349.5	350.8	350.5	352.5	352.3	352.9	352.6	354.1	353.1	354.7	354.4	356.4	354.1	361.9	363.3	364.6
4452693.909	645.1	349.52	0.000001596	42.33	361.92	298.29	349.5	350.9	350.6	352.7	352.4	352.9	352.6	354.1	353.2	354.8	354.5	356.3	354.1	361.9	363.3	364.6
4452703.860	645.4	349.54	0.000001596	42.27	361.85	298.29	349.5	351.0	350.6	352.7	352.4	352.9	352.7	354.2	353.2	354.8	354.5	356.4	354.2	361.9	363.4	364.6
4452713.860	645.6	349.57	0.000001596	42.52	361.81	298.29	349.6	350.8	350.6	352.6	352.4	353.0	352.7	354.2	353.3	354.9	354.5	356.5	354.2	361.8	363.4	364.7
4452723.910	646.9	349.59	0.000001596	42.63	362.00	298.30	349.6	351.0	350.7	352.7	352.4	353.0	352.8	354.3	353.3	354.9	354.6	356.5	354.2	362.0	363.4	364.8
4452733.911	647.6	349.63	0.000001595	42.48	361.97	298.30	349.6	351.0	350.7	352.7	352.5	353.1	352.8	354.3	353.3	354.9	354.6	356.5	354.3	362.0	363.5	364.8
4452743.911	648.5	349.66	0.000001595	42.53	361.91	298.31	349.7	351.0	350.7	352.8	352.5	353.1	352.8	354.4	353.4	354.9	354.6	356.7	354.3	361.9	363.5	364.9
4452753.912	648.4	349.69	0.000001595	42.67	361.96	298.32	349.7	351.1	350.8	352.8	352.5	353.1	352.9	354.4	353.4	354.9	354.6	356.8	354.3	362.0	363.5	364.9
4452763.912	648.3	349.73	0.000001595	42.52	362.06	298.32	349.7	351.1	350.8	352.8	352.6	353.2	352.9	354.5	353.4	355.0	354.7	356.7	354.4	362.1	363.5	365.0
4452773.913	649.4	349.79	0.000001595	42.66	362.06	298.33	349.8	351.1	350.8	352.8	352.6	353.2	352.9	354.5	353.5	355.1	354.8	356.7	354.4	362.1	363.6	365.0
4452783.913	649.6	349.82	0.000001595	42.67	362.24	298.33	349.8	351.1	350.9	352.9	352.6	353.3	353.0	354.5	353.5	355.1	354.8	356.9	354.5	362.2	363.6	365.2
4452793.863	649.9	349.86	0.000001595	42.37	362.25	298.34	349.9	351.2	350.9	352.9	352.7	353.3	353.0	354.5	353.5	355.1	354.8	356.7	354.5	362.2	363.8	365.2
4452803.914	649.0	349.89	0.000001595	42.69	362.31	298.34	349.9	351.4	350.9	353.0	352.7	353.3	353.0	354.7	353.6	355.2	354.8	356.9	354.5	362.3	363.8	365.2
4452813.864	649.6	349.95	0.000001595	42.59	362.27	298.35	349.9	351.2	351.0	352.9	352.8	353.3	353.1	354.6	353.6	355.2	354.9	356.8	354.5	362.3	363.8	365.3
4452823.915	647.6	349.99	0.000001595	42.31	362.41	298.35	350.0	351.3	351.0	353.2	352.8	353.4	353.1	354.6	353.7	355.2	355.0	357.0	354.6	362.4	363.8	365.3
4452833.915	647.8	350.02	0.000001594	42.43	362.32	298.36	350.0	351.4	351.0	353.0	352.8	353.4	353.2	354.7	353.7	355.3	355.0	356.9	354.6	362.3	363.9	365.3
4452843.866	649.1	350.06	0.000001594	42.53	362.39	298.36	350.1	351.5	351.1	353.1	352.8	353.4	353.2	354.8	353.7	355.2	355.0	356.9	354.7	362.4	363.9	365.3
4452853.916	647.7	350.08	0.000001594	42.06	362.50	298.36	350.1	351.5	351.1	353.2	352.9	353.5	353.2	354.7	353.7	355.3	355.0	357.0	354.7	362.5	363.9	365.3
4452873.867	647.3	350.14	0.000001594	42.13	362.40	298.36	350.1	351.5	351.2	353.2	352.9	353.6	353.3	354.8	353.8	355.4	355.1	357.0	354.7	362.4	364.0	365.3
4452883.917	647.6	350.17	0.000001594	42.16	362.52	298.36	350.2	351.5	351.2	353.3	353.0	353.6	353.3	354.9	353.9	355.5	355.1	357.1	354.7	362.5	364.1	365.4
4452893.918	648.5	350.21	0.000001594	42.13	362.51	298.35	350.2	351.6	351.3	353.3	353.1	353.6	353.4	354.9	353.9	355.5	355.2	357.3	354.8	362.5	364.1	365.3
4452903.918	649.5	350.22	0.000001594	41.95	362.65	298.35	350.2	351.6	351.3	353.4	353.1	353.7	353.4	354.9	353.9	355.5	355.2	357.3	354.8	362.6	364.2	365.3
4452913.919	650.2	350.26	0.000001594	42.30	362.67	298.35	350.3	351.7	351.3	353.5	353.1	353.7	353.4	355.0	353.9	355.6	355.3	357.2	354.9	362.7	364.2	365.3
4452923.919	650.0	350.29	0.000001594	42.42	362.75	298.34	350.3	351.7	351.3	353.4	353.1	353.7	353.5	355.0	354.0	355.5	355.3	357.1	354.9	362.8	364.2	365.4
4452933.919	649.2	350.32	0.000001594	37.03	362.72	298.34	350.3	351.7	351.4	353.4	353.2	353.8	353.5	355.0	354.0	355.7	355.4	357.2	354.7	362.7	364.3	365.6
4452943.920	649.6	350.35	0.000001594	43.05	362.61	298.33	350.4	351.7	351.4	353.6	353.3	353.8	353.6	355.1	354.1	355.7	355.4	357.5	355.0	362.6	364.5	365.6
4452953.920	650.3	350.40	0.000001594	43.32	362.83	298.33	350.4	351.7	351.4	353.6	353.3	353.8	353.6	355.1	354.1	355.8	355.4	357.4	355.0	362.8	364.4	365.7
4452963.871	648.8	350.42	0.000001594	43.35	362.80	298.32	350.4	351.8	351.5	353.5	353.3	353.9	353.7	355.2	354.2	355.7	355.5	357.4	355.1	362.8	364.4	365.6
4452973.921	649.8	350.46	0.000001594	43.31	362.79	298.32	350.5	351.8	351.5	353.6	353.3	353.9	353.7	355.2	354.2	355.8	355.5	357.7	355.1	362.8	364.4	365.6
4452993.922	649.9	350.51	0.000001593	43.24	363.24	298.32	350.5	352.0	351.6	353.7	353.4	354.0	353.7	355.3	354.2	355.9	355.6	357.5	355.2	363.2	364.4	365.6
4453003.922	647.7	350.54	0.000001593	43.07	363.30	298.32	350.5	352.0	351.6	353.7	353.4	354.1	353.8	355.3	354.3	355.8	355.6	357.6	355.2	363.3	364.4	365.7
4453013.923	646.6	350.57	0.000001593	43.18	363.45	298.33	350.6	352.0	351.6	353.7	353.5	354.1	353.8	355.4	354.3	355.9	355.6	357.7	355.2	363.4	364.4	365.6
4453023.923	648.0	350.58	0.000001593	43.11	363.31	298.33	350.6	351.8	351.7	353.8	353.5	354.1	353.8	355.4	354.3	355.9	355.7	357.7	355.2	363.3	364.5	365.7
4453033.924	646.1	350.62	0.000001593	43.02	363.38	298.34	350.6	352.0	351.7	353.8	353.5	354.1	353.8	355.4	354.4	356.0	355.7	357.7	355.3	363.4	364.5	365.7
4453043.874	645.8	350.66	0.000001593	43.09	363.29	298.35	350.7	352.1	351.7	353.7	353.5	354.1	353.9	355.4	354.4	356.0	355.7	357.7	355.3	363.3	364.6	365.8
4453053.925	646.8	350.69	0.000001593	43.06	363.37	298.36	350.7	352.0	351.7	353.8	353.5	354.2	353.9	355.5	354.4	356.1	355.7	357.7	355.3	363.4	364.5	365.7
4453063.925	645.5	350.73	0.000001593	43.03	363.43	298.37	350.7	352.1	351.8	353.9	353.6	354.2	353.9	355.5	354.5	356.1	355.8	357.8	355.3	363.4	364.5	365.8
4453073.925	646.5	350.75	0.000001593	43.03	363.46	298.38	350.7	352.1	351.8	353.9	353.6	354.2	354.0	355.5	354.5	356.1	355.8	357.6	355.3	363.5	364.5	365.8
4453083.926	645.3	350.78	0.000001593	42.99	363.47	298.39	350.8	352.1	351.8	354.0	353.7	354.3	354.0	355.5	354.5	356.1	355.8	357.7	355.4	363.5	364.6	365.8
4453093.926	646.1	350.81	0.000001593	43.06	363.53	298.40	350.8	352.2	351.9	353.9	353.7	354.3	354.1	355.5	354.5	356.2	355.8	358.0	355.4	363.5	364.6	365.9
4453103.927	645.2	350.85	0.000001593	42.98	363.42	298.41	350.8	352.3	351.9	354.1	353.8	354.4	354.1	355.6	354.6	356.2	355.9	358.1	355.4	363.4	364.6	365.9
4453113.927	643.8	350.88	0.000001593	42.93	363.61	298.42	350.9	352.3	351.9	354.1	353.8	354.3	354.1	355.6	354.7	356.3	355.9	358.1	355.5	363.6	364.7	365.9
4453123.928	643.9	350.93	0.000001592	42.86	363.68	298.43	350.9	352.3	352.0	354.1	353.8	354.5	354.2	355.7	354.7	356.3	356.0	357.8	355.5	363.7	364.8	365.9
4453133.928	642.0	350.96	0.000001592	42.86	363.68	298.44	351.0	352.4	352.0	354.1	353.8	354.5	354.2	355.7	354.8	356.3	356.0	357.9	355.5	363.7	364.8	365.9
4453143.928	641.9	350.99	0.000001592	42.93	363.68	298.45	351.0	352.4	352.0	354.1	353.8	354.5	354.3	355.8	354.7	356.3	356.1	357.9	355.6	363.7	364.8	366.1
4453153.929	642.5	351.01	0.000001592	42.91	363.60	298.46	351.0	352.4	352.1	354.1	353.9	354.5	354.2	355.8	354.7	356.4	356.0	358.1	355.6	363.6	364.9	366.0
4453163.929	642.3	351.03	0.000001592	42.86	363.83	298.47	351.0	352.4	352.1	354.1	353.9	354.6	354.3	355.8	354.7	356.4	356.1	358.0	355.6	363.8	364.8	366.0
4453173.930	642.6	351.06	0.000001592	42.93	363.65	298.47	351.1	352.4	352.1	354.2	353.9	354.6	354.3	355.9	354.8	356.5	356.1	358.1	355.7	363.6	364.9	366.2
4453183.880	643.2	351.09	0.000001592	43.02	363.92	298.48	351.1	352.6	352.1	354.3	354.0	354.6	354.3	355.8	354.8	356.4	356.1	358.3	355.7	363.9	364.9	366.2
4453193.931	642.1	351.12	0.000001592	42.91	363.77	298.48	351.1	352.6	352.2	354.3	354.0	354.6	354.3	355.9	354.8	356.5	356.2	358.2	355.7	363.8	365.0	366.2
4453203.931	642.4	351.16	0.000001592	42.92	363.94	298.48	351.2	352.6	352.2	354.3	354.0	354.7	354.4	355.9	354.9	356.5	356.1	358.2	355.8	363.9	365.0	366.3
4453213.931	642.0	351.18	0.000001592	42.82	363.82	298.48	351.2	352.6	352.2	354.3	354.1	354.7	354.4	355.9	354.9	356.5	356.2	358.3	355.8	363.8	365.1	366.3
4453223.932	642.7	351.22	0.000001592	42.89	363.90	298.48	351.2	352.7	352.3	354.4	354.1	354.7	354.5	356.0	354.9	356.5	356.3	358.4	355.8	363.9	365.1	366.4
4453233.932	642.6	351.25	0.000001592	42.98	364.13	298.48	351.2	352.7	352.3	354.4	354.1	354.7	354.5	356.0	354.9	356.6	356.3	358.3	355.9	364.1	365.1	366.4
4453243.933	642.9	351.27	0.000001591	42.92	363.97	298.47	351.3	352.7	352.3	354.5	354.2	354.8	354.5	356.1	355.0	356.7	356.3	358.2	355.9	364.0	365.2	366.4
4453253.933	642.8	351.30	0.000001591	42.89	364.05	298.47	351.3	352.6	352.4	354.4	354.2	354.8	354.6	356.1	355.0	356.6	356.3	358.5	355.9	364.0	365.2	366.5
4453263.884	643.7	351.33	0.000001591	42.88	364.21	298.46	351.3	352.7	352.4	354.5	354.2	354.8	354.6	356.1	355.1	356.7	356.4	358.6	356.0	364.2	365.3	366.5
4453273.884	643.2	351.37	0.000001591	42.91	364.08	298.46	351.4	352.7	352.4	354.6	354.3	354.9	354.6	356.2	355.1	356.8	356.4	358.4	356.0	364.1	365.3	366.6
4453283.934	643.9	351.41	0.000001591	42.91	364.18	298.45	351.4	352.8	352.5	354.7	354.3	354.9	354.6	356.2	355.2	356.8	356.5	358.5	356.1	364.2	365.4	366.6
4453293.935	644.2	351.42	0.000001591	42.98	364.17	298.44	351.4	352.9	352.5	354.6	354.3	355.0	354.7	356.2	355.2	356.8	356.5	358.8	356.1	364.2	365.4	366.7
4453303.935	644.1	351.45	0.000001591	42.95	364.31	298.44	351.5	352.9	352.5	354.6	354.4	355.0	354.7	356.2	355.2	356.9	356.5	358.6	356.1	364.3	365.4	366.7
4453313.936	643.4	351.47	0.000001591	42.91	364.40	298.43	351.5	352.9	352.6	354.7	354.4	355.0	354.8	356.3	355.3	357.0	356.5	358.5	356.2	364.4	365.5	366.7
4453323.886	641.3	351.50	0.000001591	42.74	364.42	298.43	351.5	352.9	352.6	354.7	354.4	355.1	354.8	356.3	355.2	356.9	356.6	358.7	356.2	364.4	365.6	366.7
4453333.937	639.4	351.52	0.000001591	42.75	364.39	298.42	351.5	352.9	352.6	354.8	354.5	355.1	354.8	356.3	355.3	356.9	356.6	358.6	356.3	364.4	365.5	366.7
4453343.937	638.8	351.56	0.000001591	42.67	364.41	298.42	351.6	353.0	352.6	354.8	354.5	355.1	354.8	356.4	355.4	357.0	356.6	358.8	356.3	364.4	365.5	366.7
4453353.887	635.6	351.58	0.000001591	42.42	364.43	298.42	351.6	353.0	352.7	354.8	354.5	355.1	354.8	356.4	355.3	357.0	356.7	358.8	356.3	364.4	365.6	366.7
4453363.888	637.0	351.63	0.000001591	42.49	364.43	298.42	351.6	353.1	352.7	354.7	354.5	355.1	354.9	356.4	355.4	356.9	356.7	358.9	356.3	364.4	365.5	366.7
4453373.938	638.9	351.67	0.000001590	42.57	364.43	298.42	351.7	353.1	352.7	354.9	354.6	355.2	354.9	356.4	355.4	357.0	356.7	358.7	356.3	364.4	365.6	366.7
4453383.889	640.3	351.72	0.000001590	42.75	364.50	298.42	351.7	353.1	352.8	354.9	354.5	355.2	354.9	356.4	355.4	357.0	356.7	358.8	356.4	364.5	365.6	366.8
4453393.889	641.0	351.73	0.000001590	42.71	364.59	298.42	351.7	353.2	352.8	355.0	354.6	355.2	354.9	356.5	355.4	357.1	356.7	358.8	356.4	364.6	365.7	366.8
4453403.940	640.0	351.78	0.000001590	42.82	364.57	298.43	351.8	353.1	352.8	355.0	354.7	355.3	355.0	356.5	355.5	357.1	356.8	359.0	356.4	364.6	365.8	366.8
4453413.940	639.3	351.80	0.000001590	42.71	364.55	298.43	351.8	353.2	352.9	355.0	354.7	355.3	355.0	356.6	355.5	357.2	356.8	358.9	356.4	364.5	365.8	366.9
4453423.940	638.4	351.82	0.000001590	42.68	364.66	298.43	351.8	353.2	352.9	355.1	354.7	355.4	355.1	356.6	355.6	357.2	356.9	359.0	356.5	364.7	365.7	366.9
4453433.941	638.1	351.86	0.000001590	42.66	364.54	298.44	351.9	353.3	352.9	355.1	354.8	355.3	355.1	356.6	355.6	357.2	356.9	359.0	356.5	364.5	365.8	366.9
4453443.891	638.4	351.88	0.000001590	42.63	364.78	298.44	351.9	353.4	353.0	355.1	354.7	355.4	355.1	356.6	355.6	357.2	356.9	359.0	356.6	364.8	365.8	367.0
4453453.892	638.2	351.93	0.000001590	42.74	364.65	298.44	351.9	353.3	353.0	355.0	354.8	355.4	355.2	356.7	355.6	357.2	357.0	359.1	356.6	364.7	365.9	367.0
4453463.942	635.0	351.96	0.000001590	42.59	364.63	298.45	352.0	353.4	353.0	355.2	354.8	355.5	355.2	356.8	355.7	357.3	357.0	359.1	356.6	364.6	365.9	367.0
4453473.893	635.6	351.98	0.000001590	42.45	364.78	298.45	352.0	353.3	353.1	355.1	354.9	355.5	355.2	356.7	355.7	357.4	357.0	359.1	356.6	364.8	365.9	367.0
4453483.893	635.4	352.00	0.000001590	42.48	364.59	298.46	352.0	353.4	353.1	355.2	354.9	355.6	355.3	356.8	355.7	357.4	357.1	359.2	356.6	364.6	365.9	367.0
4453493.943	634.9	352.02	0.000001590	42.60	364.83	298.46	352.0	353.4	353.1	355.2	354.9	355.5	355.2	356.8	355.7	357.4	357.1	359.3	356.7	364.8	365.9	367.0
4453503.944	635.1	352.06	0.000001590	42.50	364.84	298.47	352.1	353.5	353.1	355.3	354.9	355.5	355.3	356.8	355.8	357.4	357.1	359.2	356.7	364.8	365.9	367.0
4453513.944	636.1	352.09	0.000001589	42.67	364.75	298.47	352.1	353.5	353.2	355.2	355.0	355.6	355.3	356.8	355.8	357.4	357.2	359.3	356.7	364.7	365.9	367.1
4453523.945	637.6	352.12	0.000001589	42.71	364.84	298.48	352.1	353.6	353.2	355.2	355.0	355.6	355.3	356.8	355.8	357.5	357.2	359.3	356.8	364.8	366.0	367.1
4453533.895	639.4	352.15	0.000001589	42.88	364.91	298.48	352.1	353.5	353.2	355.3	355.0	355.6	355.4	356.9	355.8	357.5	357.2	359.5	356.8	364.9	366.1	367.1
4453543.896	640.9	352.20	0.000001589	42.89	364.86	298.49	352.2	353.6	353.2	355.4	355.1	355.7	355.4	357.0	355.9	357.6	357.2	359.3	356.8	364.9	366.1	367.2
4453553.946	642.6	352.24	0.000001589	43.17	365.05	298.49	352.2	353.6	353.3	355.4	355.1	355.8	355.5	357.0	355.9	357.6	357.3	359.3	356.9	365.1	366.1	367.3
4453563.946	641.9	352.28	0.000001589	42.98	364.86	298.50	352.3	353.6	353.3	355.4	355.1	355.8	355.5	357.1	356.0	357.6	357.3	359.5	356.9	364.9	366.2	367.4
4453573.947	640.8	352.31	0.000001589	42.92	365.09	298.50	352.3	353.6	353.4	355.4	355.2	355.9	355.5	357.1	356.0	357.7	357.4	359.6	357.0	365.1	366.2	367.4
4453583.897	641.7	352.34	0.000001589	43.18	365.11	298.50	352.3	353.7	353.4	355.6	355.3	355.8	355.6	357.1	356.0	357.6	357.4	359.3	357.0	365.1	366.2	367.5
4453593.948	644.0	352.38	0.000001589	43.17	365.23	298.51	352.4	353.9	353.4	355.6	355.2	356.0	355.6	357.2	356.1	357.7	357.4	359.4	357.0	365.2	366.3	367.6
4453603.948	643.4	352.38	0.000001589	43.06	365.23	298.51	352.4	353.8	353.4	355.6	355.3	356.0	355.6	357.2	356.1	357.8	357.5	359.7	357.1	365.2	366.5	367.6
4453613.949	641.9	352.43	0.000001589	43.09	365.40	298.52	352.4	353.9	353.5	355.6	355.4	356.0	355.7	357.3	356.2	357.9	357.5	359.8	357.1	365.4	366.5	367.7
4453623.899	642.1	352.45	0.000001589	43.18	365.27	298.52	352.4	353.9	353.5	355.7	355.3	356.0	355.8	357.3	356.3	357.9	357.6	359.6	357.1	365.3	366.6	367.8
4453633.949	641.9	352.46	0.000001589	43.09	365.51	298.53	352.5	353.9	353.5	355.7	355.4	356.1	355.8	357.3	356.3	357.9	357.6	359.8	357.2	365.5	366.6	367.7
4453643.950	642.4	352.49	0.000001589	43.02	365.32	298.53	352.5	353.9	353.6	355.8	355.4	356.1	355.8	357.4	356.3	357.9	357.6	359.8	357.2	365.3	366.6	367.8
4453653.950	642.4	352.51	0.000001588	43.16	365.49	298.54	352.5	353.9	353.6	355.8	355.5	356.1	355.8	357.4	356.3	358.0	357.7	359.8	357.3	365.5	366.6	367.8
4453663.951	642.4	352.53	0.000001588	43.14	365.54	298.54	352.5	354.0	353.6	355.7	355.5	356.2	355.9	357.4	356.4	358.1	357.7	359.7	357.2	365.5	366.6	367.8
4453673.951	642.8	352.57	0.000001588	43.14	365.52	298.55	352.6	354.0	353.6	355.8	355.5	356.3	355.9	357.4	356.4	358.1	357.7	359.9	357.3	365.5	366.7	368.0
4453683.952	641.8	352.58	0.000001588	43.03	365.65	298.55	352.6	353.9	353.7	355.8	355.5	356.2	355.9	357.5	356.5	358.1	357.7	360.0	357.3	365.6	366.8	367.9
4453693.902	641.9	352.62	0.000001588	43.10	365.56	298.56	352.6	354.0	353.7	355.8	355.6	356.3	356.0	357.5	356.6	358.1	357.8	360.0	357.4	365.6	366.8	368.0
4453703.952	641.0	352.63	0.000001588	42.99	365.69	298.56	352.6	354.1	353.7	355.9	355.6	356.3	356.0	357.6	356.7	358.2	357.9	360.1	357.4	365.7	366.8	368.0
4453713.953	640.4	352.65	0.000001588	42.91	365.69	298.56	352.6	354.2	353.8	355.9	355.6	356.3	356.0	357.6	356.7	358.3	357.9	360.0	357.5	365.7	366.8	368.1
4453723.953	640.6	352.69	0.000001588	42.89	365.79	298.56	352.7	354.2	353.8	356.0	355.7	356.4	356.1	357.7	356.7	358.2	358.0	360.1	357.5	365.8	366.9	368.0
4453733.904	641.0	352.72	0.000001588	42.98	365.72	298.56	352.7	354.1	353.8	356.0	355.7	356.4	356.1	357.6	356.8	358.3	357.9	360.1	357.5	365.7	367.0	368.1
4453743.954	642.3	352.75	0.000001588	43.03	365.83	298.56	352.7	354.2	353.9	356.2	355.7	356.5	356.1	357.7	356.9	358.3	358.0	360.1	357.4	365.8	367.0	368.1
4453753.905	641.5	352.76	0.000001588	43.06	365.87	298.56	352.8	354.1	353.9	356.1	355.8	356.4	356.2	357.7	356.9	358.4	358.0	360.3	357.6	365.9	367.0	368.1
4453763.955	640.9	352.79	0.000001588	42.95	365.96	298.56	352.8	354.1	353.9	356.0	355.8	356.5	356.2	357.8	357.0	358.4	358.1	360.5	357.3	366.0	367.0	368.2
4453773.905	640.9	352.81	0.000001588	43.10	366.05	298.56	352.8	354.2	353.9	356.2	355.9	356.5	356.2	357.8	357.0	358.4	358.1	360.3	357.7	366.1	367.1	368.2
4453783.906	640.6	352.83	0.000001587	42.96	366.12	298.55	352.8	354.3	353.9	356.0	355.9	356.5	356.2	357.8	357.1	358.4	358.1	360.3	357.7	366.1	367.1	368.2
4453793.906	641.2	352.87	0.000001587	43.02	366.35	298.55	352.9	354.3	354.0	356.3	355.9	356.6	356.3	357.8	357.1	358.5	358.2	360.2	357.8	366.4	367.1	368.2
4453813.957	641.4	352.93	0.000001587	43.10	366.16	298.55	352.9	354.5	354.0	356.2	356.0	356.7	356.4	357.9	357.1	358.6	358.2	360.5	357.8	366.2	367.2	368.3
4453823.908	642.1	352.96	0.000001587	43.09	366.11	298.55	353.0	354.4	354.1	356.2	356.0	356.7	356.3	358.0	357.3	358.5	358.2	360.3	357.8	366.1	367.2	368.3
4453833.958	640.9	352.99	0.000001587	43.09	366.19	298.54	353.0	354.4	354.1	356.3	356.0	356.7	356.4	358.0	357.3	358.6	358.3	360.7	357.9	366.2	367.2	368.4
4453843.958	640.1	353.03	0.000001587	43.02	366.18	298.54	353.0	354.5	354.1	356.4	356.0	356.7	356.4	358.0	357.3	358.6	358.3	360.4	357.9	366.2	367.2	368.3
4453853.959	641.6	353.06	0.000001587	42.93	366.12	298.54	353.1	354.5	354.1	356.3	356.0	356.8	356.5	358.1	357.2	358.7	358.4	360.5	357.9	366.1	367.3	368.3
4453863.959	641.1	353.09	0.000001587	43.03	366.33	298.54	353.1	354.6	354.2	356.4	356.1	356.8	356.5	358.1	357.3	358.6	358.3	360.5	358.0	366.3	367.3	368.4
4453873.960	641.2	353.11	0.000001587	42.95	366.32	298.54	353.1	354.6	354.2	356.3	356.1	356.8	356.5	358.1	357.3	358.6	358.4	360.5	358.0	366.3	367.3	368.5
4453883.910	642.4	353.14	0.000001587	42.96	366.39	298.54	353.1	354.6	354.2	356.5	356.1	356.9	356.5	358.1	357.3	358.7	358.4	360.8	358.0	366.4	367.3	368.5
4453893.911	641.8	353.16	0.000001587	42.99	366.38	298.55	353.2	354.6	354.3	356.4	356.2	356.8	356.5	358.2	357.4	358.7	358.4	360.7	358.0	366.4	367.4	368.4
4453903.911	641.2	353.18	0.000001587	43.05	366.51	298.55	353.2	354.6	354.3	356.4	356.2	356.9	356.6	358.2	357.4	358.8	358.4	360.9	358.0	366.5	367.5	368.5
4453913.911	640.4	353.22	0.000001587	42.92	366.54	298.55	353.2	354.7	354.3	356.5	356.2	356.9	356.6	358.2	357.5	358.9	358.5	360.6	358.1	366.5	367.5	368.5
4453923.912	639.8	353.24	0.000001587	42.91	366.50	298.55	353.2	354.7	354.4	356.5	356.3	356.9	356.6	358.2	357.4	358.8	358.5	361.1	358.1	366.5	367.5	368.5
4453933.912	638.3	353.28	0.000001586	42.74	366.54	298.56	353.3	354.6	354.4	356.6	356.3	357.0	356.7	358.3	357.5	358.8	358.6	360.5	358.2	366.5	367.4	368.6
4453943.963	635.4	353.32	0.000001586	42.46	366.53	298.56	353.3	354.8	354.4	356.5	356.3	357.0	356.8	358.3	357.6	358.9	358.6	360.8	358.2	366.5	367.4	368.5
4453953.963	633.0	353.34	0.000001586	42.48	366.59	298.57	353.3	354.9	354.4	356.6	356.4	357.0	356.7	358.3	357.6	359.0	358.6	360.9	358.2	366.6	367.4	368.5
4453963.914	634.3	353.37	0.000001586	42.55	366.47	298.58	353.4	354.7	354.5	356.7	356.3	357.1	356.7	358.3	357.6	358.8	358.6	360.8	358.2	366.5	367.4	368.5
4453973.964	636.0	353.39	0.000001586	42.70	366.62	298.58	353.4	355.1	354.5	356.6	356.3	357.1	356.8	358.3	357.6	358.9	358.6	360.8	358.3	366.6	367.4	368.6
4453983.964	636.5	353.45	0.000001586	42.63	366.58	298.59	353.4	354.9	354.5	356.6	356.4	357.1	356.8	358.3	357.7	358.8	358.6	361.0	358.3	366.6	367.5	368.5
4453993.965	637.4	353.47	0.000001586	42.74	366.44	298.60	353.5	355.0	354.5	356.7	356.4	357.1	356.8	358.4	357.7	359.0	358.6	360.9	358.3	366.4	367.5	368.6
4454003.965	638.1	353.51	0.000001586	42.67	366.63	298.61	353.5	355.0	354.6	356.8	356.4	357.2	356.9	358.4	357.7	359.1	358.7	360.7	358.3	366.6	367.6	368.7
4454013.916	637.5	353.55	0.000001586	42.74	366.78	298.61	353.6	355.1	354.6	356.9	356.5	357.2	356.9	358.4	357.7	359.0	358.7	360.6	358.4	366.8	367.6	368.7
4454023.916	637.7	353.58	0.000001586	42.59	366.75	298.62	353.6	354.9	354.6	356.9	356.5	357.2	356.9	358.5	357.8	359.0	358.7	361.2	358.4	366.8	367.7	368.8
4454033.967	637.2	353.61	0.000001586	42.73	366.78	298.62	353.6	355.0	354.7	356.9	356.6	357.2	356.9	358.5	357.8	359.1	358.8	361.1	358.4	366.8	367.7	368.9
4454043.917	638.6	353.65	0.000001586	42.82	366.75	298.63	353.7	355.1	354.7	356.9	356.6	357.3	357.0	358.6	357.8	359.1	358.8	361.2	358.5	366.8	367.7	368.9
4454053.967	638.9	353.67	0.000001586	42.67	366.90	298.63	353.7	355.1	354.7	357.0	356.6	357.3	357.0	358.6	357.9	359.3	358.9	361.0	358.5	366.9	367.8	369.0
4454063.968	639.0	353.74	0.000001585	42.43	367.10	298.63	353.7	355.3	354.8	357.1	356.7	357.4	357.1	358.7	357.9	359.3	358.9	361.2	358.4	367.1	367.8	369.0
4454073.918	637.3	353.75	0.000001585	42.71	366.92	298.63	353.7	355.3	354.8	357.0	356.6	357.4	357.1	358.7	358.0	359.3	358.9	360.9	358.6	366.9	367.9	369.0
4454083.919	638.1	353.79	0.000001585	42.93	367.09	298.63	353.8	355.2	354.8	357.0	356.7	357.3	357.1	358.7	358.0	359.3	359.0	361.1	358.7	367.1	367.9	369.0
4454093.919	638.7	353.84	0.000001480	43.10	366.87	298.63	353.8	355.3	354.9	357.0	356.8	357.5	357.2	358.8	358.1	359.3	359.0	361.0	358.7	366.9	367.8	369.0
4454103.906	639.5	353.88	0.000001479	43.03	367.04	298.63	353.9	355.3	354.9	357.1	356.8	357.4	357.2	358.8	358.0	359.3	359.1	361.3	358.7	367.0	367.8	369.0
4454113.941	638.4	353.92	0.000001479	42.92	367.14	298.63	353.9	355.4	354.9	357.2	356.8	357.5	357.2	358.8	358.1	359.4	359.1	361.3	358.7	367.1	367.9	369.0
4454123.878	637.3	353.95	0.000001479	42.93	366.99	298.62	353.9	355.3	355.0	357.0	356.8	357.5	357.3	358.8	358.1	359.4	359.1	361.1	358.7	367.0	367.9	369.0
4454133.914	637.3	353.97	0.000001479	42.98	367.05	298.62	354.0	355.4	355.0	357.2	356.8	357.5	357.3	358.8	358.1	359.4	359.1	361.3	358.7	367.1	367.9	369.1
4454143.851	636.3	354.01	0.000001479	42.73	367.13	298.61	354.0	355.4	355.0	357.3	356.9	357.5	357.3	358.8	358.1	359.5	359.1	361.6	358.8	367.1	367.9	369.1
4454153.887	636.4	354.03	0.000001479	42.96	367.23	298.61	354.0	355.5	355.1	357.3	356.9	357.6	357.3	358.9	358.1	359.5	359.1	361.4	358.8	367.2	368.0	369.1
4454163.873	635.6	354.08	0.000001479	42.96	367.36	298.60	354.1	355.5	355.1	357.3	357.0	357.6	357.3	358.9	358.2	359.5	359.2	361.4	358.8	367.4	368.1	369.2
4454173.860	635.1	354.10	0.000001479	42.86	367.19	298.60	354.1	355.5	355.1	357.2	357.0	357.7	357.4	359.0	358.2	359.5	359.2	361.4	358.8	367.2	368.1	369.3
4454183.846	635.0	354.13	0.000001479	43.00	367.36	298.59	354.1	355.6	355.1	357.4	357.0	357.7	357.5	359.0	358.3	359.6	359.3	361.3	358.9	367.4	368.1	369.4
4454193.783	634.6	354.17	0.000001479	42.92	367.36	298.58	354.2	355.6	355.2	357.4	357.1	357.8	357.4	359.1	358.3	359.6	359.3	361.6	358.9	367.4	368.2	369.4
4454203.819	634.0	354.21	0.000001479	42.82	367.35	298.58	354.2	355.6	355.2	357.4	357.1	357.8	357.5	359.1	358.3	359.7	359.3	361.7	358.8	367.3	368.2	369.5
4454213.756	633.7	354.22	0.000001479	42.77	367.44	298.57	354.2	355.7	355.2	357.4	357.1	357.8	357.5	359.1	358.4	359.7	359.4	361.6	359.0	367.4	368.2	369.4
4454223.743	634.6	354.25	0.000001479	42.98	367.47	298.56	354.2	355.7	355.3	357.4	357.1	357.8	357.5	359.1	358.4	359.7	359.4	361.5	359.0	367.5	368.5	369.6
4454233.778	635.6	354.27	0.000001479	42.89	367.63	298.56	354.3	355.7	355.3	357.5	357.2	357.8	357.6	359.2	358.4	359.8	359.4	361.7	359.0	367.6	368.4	369.5
4454243.765	635.1	354.28	0.000001479	42.95	367.58	298.55	354.3	355.7	355.3	357.6	357.2	357.9	357.6	359.2	358.5	359.8	359.4	361.5	359.1	367.6	368.4	369.5
4454253.751	634.7	354.31	0.000001478	43.02	367.52	298.55	354.3	355.9	355.4	357.5	357.2	357.9	357.6	359.2	358.5	359.8	359.5	361.7	359.1	367.5	368.3	369.7
4454263.688	633.0	354.36	0.000001478	42.98	367.62	298.55	354.4	355.9	355.4	357.7	357.3	358.0	357.7	359.2	358.5	359.8	359.5	361.9	359.1	367.6	368.4	369.7
4454273.724	631.9	354.38	0.000001478	42.95	367.69	298.55	354.4	355.8	355.4	357.6	357.3	358.0	357.7	359.3	358.6	359.8	359.6	362.1	359.2	367.7	368.4	369.7
4454283.710	631.2	354.38	0.000001478	42.74	367.64	298.54	354.4	355.9	355.4	357.6	357.3	358.0	357.7	359.3	358.6	359.9	359.6	361.9	359.2	367.6	368.2	369.7
4454293.697	630.6	354.42	0.000001478	42.99	367.63	298.54	354.4	355.9	355.5	357.5	357.3	358.0	357.7	359.4	358.6	359.9	359.6	361.7	359.2	367.6	368.3	369.8
4454303.683	632.0	354.44	0.000001478	43.00	367.61	298.54	354.4	355.9	355.5	357.8	357.3	358.1	357.8	359.3	358.7	359.9	359.6	361.6	359.3	367.6	368.4	369.9
4454313.621	632.1	354.48	0.000001478	43.13	367.67	298.54	354.5	355.9	355.5	357.8	357.5	358.1	357.8	359.3	358.7	360.0	359.6	361.8	359.3	367.7	368.4	369.9
4454333.642	633.4	354.52	0.000001478	43.21	368.18	298.54	354.5	356.0	355.6	357.8	357.4	358.1	357.8	359.4	358.7	360.0	359.7	361.8	359.4	368.2	368.4	369.8
4454353.615	631.6	354.58	0.000001478	43.10	367.83	298.54	354.6	356.1	355.6	357.9	357.5	358.2	357.9	359.5	358.8	360.0	359.7	361.7	359.4	367.8	368.5	369.9
4454363.602	632.3	354.60	0.000001478	43.14	367.98	298.54	354.6	356.1	355.7	357.9	357.6	358.2	357.9	359.5	358.8	360.0	359.7	362.2	359.4	368.0	368.6	370.1
4454373.539	632.0	354.63	0.000001478	43.11	367.99	298.54	354.6	355.9	355.7	357.8	357.6	358.2	358.0	359.5	358.8	360.1	359.8	362.0	359.4	368.0	368.5	370.0
4454383.575	630.2	354.65	0.000001478	43.03	367.97	298.53	354.6	356.1	355.7	357.8	357.6	358.3	358.0	359.6	358.9	360.1	359.8	362.0	359.5	368.0	368.6	370.0
4454393.562	633.0	354.66	0.000001478	43.20	367.94	298.53	354.7	356.1	355.7	357.9	357.6	358.2	358.0	359.6	358.8	360.2	359.8	362.0	359.5	367.9	368.6	370.1
4454403.557	632.4	354.70	0.000001478	43.10	367.98	298.53	354.7	356.2	355.8	358.0	357.6	358.3	358.0	359.6	358.9	360.2	359.9	362.5	359.5	368.0	368.7	370.1
4454413.553	630.4	354.72	0.000001478	43.09	368.07	298.52	354.7	356.3	355.8	357.9	357.6	358.4	358.1	359.7	358.9	360.3	359.9	362.2	359.5	368.1	368.7	370.1
4454423.498	630.7	354.77	0.000001478	43.14	368.15	298.52	354.8	356.3	355.8	358.0	357.7	358.4	358.1	359.7	358.9	360.2	359.9	362.1	359.6	368.2	368.7	370.1
4454433.544	631.1	354.80	0.000001477	43.16	368.08	298.51	354.8	356.3	355.8	358.0	357.7	358.4	358.1	359.7	359.0	360.3	359.9	362.2	359.6	368.1	368.7	370.1
4454443.489	630.5	354.82	0.000001477	43.16	368.10	298.51	354.8	356.4	355.9	358.0	357.7	358.4	358.1	359.7	359.0	360.4	360.0	362.2	359.6	368.1	368.8	370.2
4454453.535	629.7	354.87	0.000001477	43.03	368.07	298.50	354.9	356.2	355.9	358.1	357.8	358.5	358.2	359.8	359.0	360.3	360.0	362.4	359.7	368.1	368.8	370.1
4454463.530	628.7	354.88	0.000001477	43.00	368.09	298.50	354.9	356.3	355.9	358.2	357.8	358.5	358.2	359.8	359.1	360.4	360.0	362.4	359.7	368.1	368.8	370.2
4454473.525	628.3	354.90	0.000001477	42.99	368.27	298.49	354.9	356.5	356.0	358.1	357.8	358.5	358.2	359.8	359.1	360.5	360.1	362.4	359.7	368.3	368.8	370.2
4454483.471	627.5	354.91	0.000001477	43.02	368.38	298.49	354.9	356.4	356.0	358.3	357.9	358.6	358.2	359.8	359.1	360.4	360.1	362.4	359.7	368.4	368.9	370.1
4454493.516	628.9	354.93	0.000001477	42.99	368.31	298.48	354.9	356.5	356.0	358.2	357.9	358.6	358.3	359.9	359.2	360.4	360.1	362.4	359.8	368.3	369.0	370.2
4454503.512	628.7	354.97	0.000001477	43.14	368.33	298.48	355.0	356.4	356.0	358.2	357.9	358.6	358.3	359.9	359.2	360.5	360.2	362.4	359.8	368.3	368.9	370.3
4454513.507	628.6	355.00	0.000001477	43.03	368.44	298.48	355.0	356.4	356.1	358.3	358.0	358.6	358.4	359.9	359.2	360.5	360.1	362.3	359.8	368.4	369.0	370.3
4454523.453	629.6	355.00	0.000001477	43.06	368.43	298.48	355.0	356.5	356.1	358.2	358.0	358.7	358.4	360.0	359.2	360.6	360.2	362.5	359.8	368.4	368.9	370.3
4454533.498	629.1	355.06	0.000001477	43.06	368.45	298.47	355.1	356.5	356.1	358.3	358.0	358.7	358.4	360.0	359.3	360.6	360.3	362.5	359.9	368.5	369.0	370.4
4454543.493	629.1	355.10	0.000001477	43.00	368.44	298.48	355.1	356.6	356.1	358.3	358.1	358.7	358.4	360.0	359.3	360.6	360.3	362.6	359.9	368.4	369.0	370.4
4454553.439	628.9	355.14	0.000001477	42.99	368.36	298.48	355.1	356.6	356.2	358.4	358.1	358.7	358.4	360.1	359.3	360.6	360.3	362.7	359.9	368.4	369.1	370.4
4454563.484	629.3	355.15	0.000001476	43.07	368.54	298.48	355.2	356.7	356.2	358.4	358.1	358.8	358.5	360.1	359.4	360.6	360.3	362.6	360.0	368.5	369.1	370.4
4454573.480	629.5	355.19	0.000001476	43.13	368.57	298.48	355.2	356.7	356.2	358.3	358.2	358.8	358.5	360.2	359.4	360.6	360.4	362.7	360.0	368.6	369.2	370.4
4454583.475	630.0	355.21	0.000001476	43.10	368.48	298.48	355.2	356.7	356.3	358.5	358.2	358.8	358.5	360.1	359.4	360.7	360.4	362.6	360.0	368.5	369.2	370.5
4454593.471	630.1	355.25	0.000001476	43.14	368.56	298.49	355.3	356.7	356.3	358.5	358.2	358.9	358.6	360.2	359.4	360.7	360.4	362.6	360.0	368.6	369.2	370.5
4454603.416	629.1	355.28	0.000001476	43.06	368.75	298.49	355.3	356.7	356.3	358.6	358.3	359.0	358.6	360.2	359.5	360.8	360.5	362.7	360.1	368.8	369.4	370.6
4454613.411	628.4	355.31	0.000001476	42.98	368.61	298.50	355.3	356.9	356.4	358.5	358.3	359.0	358.7	360.2	359.5	360.8	360.4	362.7	360.1	368.6	369.4	370.6
4454623.457	628.9	355.33	0.000001476	43.09	368.61	298.50	355.3	356.8	356.4	358.6	358.3	359.0	358.7	360.2	359.6	360.9	360.5	362.8	360.1	368.6	369.4	370.6
4454633.452	628.6	355.37	0.000001476	43.02	368.57	298.51	355.4	356.9	356.4	358.5	358.3	359.0	358.7	360.3	359.6	360.8	360.6	362.6	360.1	368.6	369.4	370.6
4454643.448	628.9	355.39	0.000001476	42.88	368.68	298.51	355.4	356.8	356.5	358.7	358.3	359.1	358.7	360.3	359.6	360.9	360.6	362.8	360.2	368.7	369.4	370.7
4454653.443	628.1	355.43	0.000001476	42.92	368.59	298.52	355.4	356.9	356.5	358.7	358.4	359.0	358.7	360.4	359.7	360.9	360.6	363.1	360.2	368.6	369.4	370.8
4454663.439	628.3	355.46	0.000001476	42.87	368.80	298.52	355.5	356.9	356.5	358.8	358.5	359.2	358.8	360.4	359.6	360.9	360.6	363.3	360.2	368.8	369.4	370.8
4454673.434	627.5	355.49	0.000001476	42.80	368.66	298.53	355.5	356.9	356.6	358.6	358.5	359.2	358.8	360.5	359.7	361.1	360.7	362.8	360.3	368.7	369.5	370.8
4454683.379	627.1	355.51	0.000001476	42.69	368.79	298.53	355.5	357.0	356.6	358.7	358.5	359.2	358.9	360.5	359.8	361.0	360.7	363.0	360.3	368.8	369.5	370.8
4454693.425	627.8	355.54	0.000001476	42.81	368.74	298.54	355.5	357.0	356.6	358.9	358.5	359.2	358.9	360.5	359.8	361.1	360.8	362.8	360.3	368.7	369.5	370.8
4454703.373	628.1	355.57	0.000001476	42.98	368.83	298.54	355.6	357.0	356.7	358.9	358.5	359.2	358.9	360.5	359.8	361.1	360.8	363.2	360.4	368.8	369.5	370.8
4454713.372	629.6	355.58	0.000001476	43.09	368.83	298.55	355.6	357.0	356.7	358.9	358.6	359.3	359.0	360.6	359.8	361.1	360.8	363.1	360.4	368.8	369.6	370.8
4454723.420	629.9	355.62	0.000001476	42.96	368.91	298.55	355.6	357.2	356.7	358.9	358.6	359.3	359.0	360.6	359.9	361.2	360.8	363.2	360.4	368.9	369.7	370.9
4454733.418	629.5	355.65	0.000001475	43.03	369.14	298.56	355.7	357.3	356.7	359.0	358.6	359.3	359.0	360.6	359.9	361.2	360.9	363.2	360.4	369.1	369.7	371.0
4454743.417	630.1	355.67	0.000001475	43.02	368.97	298.57	355.7	357.1	356.8	359.0	358.7	359.3	359.0	360.6	359.9	361.2	360.9	362.9	360.4	369.0	369.7	371.0
4454753.415	631.1	355.71	0.000001475	43.16	369.09	298.57	355.7	357.2	356.8	359.0	358.7	359.4	359.1	360.7	360.0	361.2	360.9	363.3	360.5	369.1	369.8	371.0
4454763.414	631.3	355.72	0.000001475	43.09	369.13	298.58	355.7	357.2	356.8	359.0	358.7	359.4	359.1	360.7	359.9	361.2	361.0	363.3	360.5	369.1	369.8	371.0
4454773.362	631.6	355.75	0.000001475	43.16	368.96	298.59	355.8	357.3	356.8	359.1	358.7	359.4	359.1	360.7	360.0	361.3	361.0	363.5	360.5	369.0	369.8	371.1
4454783.411	630.5	355.78	0.000001475	43.05	369.14	298.60	355.8	357.1	356.9	359.0	358.7	359.5	359.2	360.8	360.0	361.3	361.0	363.3	360.5	369.1	369.8	371.2
4454793.359	632.4	355.80	0.000001475	43.13	369.36	298.61	355.8	357.3	356.9	359.1	358.8	359.5	359.2	360.8	360.0	361.3	361.0	363.3	360.7	369.4	369.8	371.1
4454803.407	631.3	355.82	0.000001475	43.05	369.27	298.62	355.8	357.4	356.9	359.2	358.9	359.5	359.2	360.7	360.1	361.3	361.0	363.4	360.6	369.3	369.8	371.1
4454813.406	631.9	355.84	0.000001475	43.14	369.22	298.63	355.8	357.4	356.9	359.1	358.8	359.6	359.2	360.8	360.1	361.4	361.1	363.5	360.7	369.2	369.9	371.2
4454823.354	631.6	355.88	0.000001475	43.21	369.33	298.64	355.9	357.2	357.0	359.2	358.9	359.6	359.3	360.8	360.1	361.4	361.1	363.3	360.7	369.3	369.9	371.2
4454833.403	632.0	355.91	0.000001475	43.10	369.34	298.66	355.9	357.5	357.0	359.2	358.9	359.6	359.3	360.8	360.1	361.5	361.2	363.5	360.7	369.3	370.0	371.2
4454843.351	632.0	355.94	0.000001475	43.11	369.40	298.67	355.9	357.5	357.0	359.2	359.0	359.6	359.3	360.9	360.2	361.5	361.2	363.5	360.7	369.4	370.0	371.3
4454853.400	631.2	355.98	0.000001475	43.09	369.18	298.69	356.0	357.4	357.1	359.2	359.0	359.7	359.4	361.0	360.2	361.4	361.2	363.7	360.7	369.2	370.0	371.3
4454863.398	631.0	356.00	0.000001475	42.99	369.36	298.70	356.0	357.3	357.1	359.3	359.0	359.7	359.4	361.0	360.3	361.5	361.2	363.8	360.8	369.4	370.0	371.3
4454873.346	629.9	356.02	0.000001475	42.98	369.36	298.72	356.0	357.4	357.1	359.4	359.0	359.7	359.4	361.0	360.3	361.5	361.3	363.5	360.9	369.4	370.1	371.3
4454883.395	630.6	356.06	0.000001475	43.00	369.39	298.73	356.1	357.6	357.1	359.4	359.0	359.8	359.5	361.0	360.3	361.7	361.3	363.7	360.9	369.4	370.1	371.3
4454893.393	630.5	356.08	0.000001475	43.05	369.50	298.75	356.1	357.5	357.2	359.5	359.1	359.7	359.4	361.0	360.3	361.7	361.3	363.7	360.9	369.5	370.1	371.3
4454903.392	630.2	356.11	0.000001474	43.03	369.38	298.76	356.1	357.5	357.2	359.4	359.2	359.8	359.5	361.1	360.3	361.7	361.3	363.6	360.6	369.4	370.1	371.3
4454913.340	630.0	356.12	0.000001474	43.09	369.32	298.77	356.1	357.7	357.2	359.5	359.2	359.9	359.5	361.1	360.3	361.7	361.4	363.9	360.9	369.3	370.1	371.4
4454923.389	630.7	356.16	0.000001474	43.07	369.42	298.79	356.2	357.6	357.3	359.5	359.1	359.9	359.5	361.1	360.4	361.8	361.4	363.8	361.0	369.4	370.2	371.5
4454933.337	630.6	356.19	0.000001474	42.92	369.46	298.80	356.2	357.7	357.3	359.5	359.2	359.9	359.6	361.2	360.4	361.7	361.4	363.8	361.0	369.5	370.2	371.4
4454943.385	629.9	356.21	0.000001474	43.16	369.72	298.80	356.2	357.8	357.3	359.4	359.2	359.9	359.6	361.2	360.5	361.8	361.5	363.9	361.0	369.7	370.3	371.5
4454953.384	628.2	356.26	0.000001474	43.02	369.54	298.81	356.3	357.8	357.3	359.6	359.3	360.0	359.7	361.2	360.5	361.8	361.5	363.5	361.0	369.5	370.3	371.5
4454963.382	628.0	356.27	0.000001474	42.85	369.52	298.82	356.3	357.8	357.4	359.6	359.3	360.0	359.7	361.3	360.5	361.8	361.5	363.8	361.1	369.5	370.3	371.6
4454973.381	629.1	356.30	0.000001474	43.03	369.61	298.83	356.3	357.7	357.4	359.6	359.3	360.0	359.7	361.3	360.5	361.8	361.6	363.8	361.1	369.6	370.3	371.5
4454983.329	629.2	356.32	0.000001474	43.03	369.75	298.83	356.3	357.8	357.4	359.6	359.3	360.1	359.7	361.3	360.6	361.9	361.6	363.7	361.1	369.8	370.4	371.5
4454993.378	628.1	356.36	0.000001474	43.00	369.67	298.84	356.4	357.8	357.4	359.5	359.4	360.1	359.7	361.3	360.6	362.0	361.5	364.0	361.2	369.7	370.4	371.6
4455003.377	627.4	356.40	0.000001474	42.79	369.67	298.84	356.4	357.8	357.5	359.7	359.4	360.2	359.8	361.4	360.6	362.0	361.6	364.0	361.2	369.7	370.4	371.6
4455013.376	626.1	356.42	0.000001474	42.81	369.86	298.84	356.4	357.9	357.5	359.8	359.5	360.1	359.8	361.4	360.7	361.9	361.6	363.9	361.2	369.9	370.4	371.6
4455023.326	625.0	356.44	0.000001474	42.66	369.84	298.84	356.4	357.9	357.5	359.8	359.5	360.1	359.9	361.4	360.7	362.0	361.7	364.0	361.2	369.8	370.4	371.6
31557185.89	625.0	356.44	0.000001474	42.66	369.84	298.84	356.4	357.9	357.5	359.8	359.5	360.1	359.9	361.4	360.7	362.0	361.7	364.0	361.2	369.8	370.4	371.6